#  E (eV)   dos(E)     Int dos(E) EFermi =   -0.546 eV
 -29.000  0.2264E-05  0.2264E-07
 -28.990  0.2960E-05  0.5224E-07
 -28.980  0.3858E-05  0.9082E-07
 -28.970  0.5016E-05  0.1410E-06
 -28.960  0.6503E-05  0.2060E-06
 -28.950  0.8409E-05  0.2901E-06
 -28.940  0.1084E-04  0.3985E-06
 -28.930  0.1394E-04  0.5380E-06
 -28.920  0.1788E-04  0.7168E-06
 -28.910  0.2288E-04  0.9456E-06
 -28.900  0.2918E-04  0.1237E-05
 -28.890  0.3712E-04  0.1609E-05
 -28.880  0.4709E-04  0.2079E-05
 -28.870  0.5958E-04  0.2675E-05
 -28.860  0.7518E-04  0.3427E-05
 -28.850  0.9460E-04  0.4373E-05
 -28.840  0.1187E-03  0.5560E-05
 -28.830  0.1486E-03  0.7046E-05
 -28.820  0.1854E-03  0.8900E-05
 -28.810  0.2308E-03  0.1121E-04
 -28.800  0.2865E-03  0.1407E-04
 -28.790  0.3547E-03  0.1762E-04
 -28.780  0.4380E-03  0.2200E-04
 -28.770  0.5393E-03  0.2739E-04
 -28.760  0.6622E-03  0.3402E-04
 -28.750  0.8110E-03  0.4213E-04
 -28.740  0.9904E-03  0.5203E-04
 -28.730  0.1206E-02  0.6409E-04
 -28.720  0.1465E-02  0.7875E-04
 -28.710  0.1775E-02  0.9650E-04
 -28.700  0.2145E-02  0.1179E-03
 -28.690  0.2584E-02  0.1438E-03
 -28.680  0.3105E-02  0.1748E-03
 -28.670  0.3721E-02  0.2120E-03
 -28.660  0.4447E-02  0.2565E-03
 -28.650  0.5300E-02  0.3095E-03
 -28.640  0.6300E-02  0.3725E-03
 -28.630  0.7468E-02  0.4472E-03
 -28.620  0.8829E-02  0.5355E-03
 -28.610  0.1041E-01  0.6396E-03
 -28.600  0.1224E-01  0.7620E-03
 -28.590  0.1436E-01  0.9055E-03
 -28.580  0.1679E-01  0.1073E-02
 -28.570  0.1958E-01  0.1269E-02
 -28.560  0.2278E-01  0.1497E-02
 -28.550  0.2643E-01  0.1761E-02
 -28.540  0.3059E-01  0.2067E-02
 -28.530  0.3530E-01  0.2420E-02
 -28.520  0.4062E-01  0.2826E-02
 -28.510  0.4663E-01  0.3293E-02
 -28.500  0.5338E-01  0.3827E-02
 -28.490  0.6095E-01  0.4436E-02
 -28.480  0.6941E-01  0.5130E-02
 -28.470  0.7883E-01  0.5918E-02
 -28.460  0.8929E-01  0.6811E-02
 -28.450  0.1009E+00  0.7820E-02
 -28.440  0.1137E+00  0.8957E-02
 -28.430  0.1278E+00  0.1023E-01
 -28.420  0.1432E+00  0.1167E-01
 -28.410  0.1601E+00  0.1327E-01
 -28.400  0.1786E+00  0.1505E-01
 -28.390  0.1986E+00  0.1704E-01
 -28.380  0.2203E+00  0.1924E-01
 -28.370  0.2438E+00  0.2168E-01
 -28.360  0.2692E+00  0.2437E-01
 -28.350  0.2964E+00  0.2734E-01
 -28.340  0.3255E+00  0.3059E-01
 -28.330  0.3566E+00  0.3416E-01
 -28.320  0.3898E+00  0.3806E-01
 -28.310  0.4250E+00  0.4231E-01
 -28.300  0.4622E+00  0.4693E-01
 -28.290  0.5015E+00  0.5194E-01
 -28.280  0.5429E+00  0.5737E-01
 -28.270  0.5863E+00  0.6324E-01
 -28.260  0.6317E+00  0.6955E-01
 -28.250  0.6791E+00  0.7634E-01
 -28.240  0.7284E+00  0.8363E-01
 -28.230  0.7796E+00  0.9142E-01
 -28.220  0.8325E+00  0.9975E-01
 -28.210  0.8872E+00  0.1086E+00
 -28.200  0.9435E+00  0.1181E+00
 -28.190  0.1001E+01  0.1281E+00
 -28.180  0.1061E+01  0.1387E+00
 -28.170  0.1121E+01  0.1499E+00
 -28.160  0.1183E+01  0.1617E+00
 -28.150  0.1246E+01  0.1742E+00
 -28.140  0.1310E+01  0.1873E+00
 -28.130  0.1375E+01  0.2010E+00
 -28.120  0.1440E+01  0.2154E+00
 -28.110  0.1507E+01  0.2305E+00
 -28.100  0.1574E+01  0.2462E+00
 -28.090  0.1641E+01  0.2626E+00
 -28.080  0.1709E+01  0.2797E+00
 -28.070  0.1778E+01  0.2975E+00
 -28.060  0.1847E+01  0.3160E+00
 -28.050  0.1916E+01  0.3352E+00
 -28.040  0.1985E+01  0.3550E+00
 -28.030  0.2055E+01  0.3756E+00
 -28.020  0.2125E+01  0.3968E+00
 -28.010  0.2195E+01  0.4188E+00
 -28.000  0.2265E+01  0.4414E+00
 -27.990  0.2335E+01  0.4647E+00
 -27.980  0.2405E+01  0.4888E+00
 -27.970  0.2476E+01  0.5136E+00
 -27.960  0.2546E+01  0.5390E+00
 -27.950  0.2616E+01  0.5652E+00
 -27.940  0.2686E+01  0.5920E+00
 -27.930  0.2756E+01  0.6196E+00
 -27.920  0.2825E+01  0.6478E+00
 -27.910  0.2894E+01  0.6768E+00
 -27.900  0.2962E+01  0.7064E+00
 -27.890  0.3030E+01  0.7367E+00
 -27.880  0.3096E+01  0.7677E+00
 -27.870  0.3162E+01  0.7993E+00
 -27.860  0.3225E+01  0.8315E+00
 -27.850  0.3287E+01  0.8644E+00
 -27.840  0.3348E+01  0.8979E+00
 -27.830  0.3405E+01  0.9319E+00
 -27.820  0.3461E+01  0.9666E+00
 -27.810  0.3513E+01  0.1002E+01
 -27.800  0.3562E+01  0.1037E+01
 -27.790  0.3608E+01  0.1073E+01
 -27.780  0.3650E+01  0.1110E+01
 -27.770  0.3687E+01  0.1147E+01
 -27.760  0.3720E+01  0.1184E+01
 -27.750  0.3749E+01  0.1221E+01
 -27.740  0.3772E+01  0.1259E+01
 -27.730  0.3790E+01  0.1297E+01
 -27.720  0.3803E+01  0.1335E+01
 -27.710  0.3810E+01  0.1373E+01
 -27.700  0.3811E+01  0.1411E+01
 -27.690  0.3806E+01  0.1449E+01
 -27.680  0.3796E+01  0.1487E+01
 -27.670  0.3780E+01  0.1525E+01
 -27.660  0.3757E+01  0.1563E+01
 -27.650  0.3730E+01  0.1600E+01
 -27.640  0.3696E+01  0.1637E+01
 -27.630  0.3658E+01  0.1674E+01
 -27.620  0.3614E+01  0.1710E+01
 -27.610  0.3566E+01  0.1745E+01
 -27.600  0.3513E+01  0.1780E+01
 -27.590  0.3457E+01  0.1815E+01
 -27.580  0.3396E+01  0.1849E+01
 -27.570  0.3333E+01  0.1882E+01
 -27.560  0.3267E+01  0.1915E+01
 -27.550  0.3200E+01  0.1947E+01
 -27.540  0.3130E+01  0.1978E+01
 -27.530  0.3060E+01  0.2009E+01
 -27.520  0.2990E+01  0.2039E+01
 -27.510  0.2919E+01  0.2068E+01
 -27.500  0.2850E+01  0.2096E+01
 -27.490  0.2781E+01  0.2124E+01
 -27.480  0.2715E+01  0.2151E+01
 -27.470  0.2651E+01  0.2178E+01
 -27.460  0.2589E+01  0.2204E+01
 -27.450  0.2531E+01  0.2229E+01
 -27.440  0.2477E+01  0.2254E+01
 -27.430  0.2428E+01  0.2278E+01
 -27.420  0.2383E+01  0.2302E+01
 -27.410  0.2343E+01  0.2325E+01
 -27.400  0.2308E+01  0.2349E+01
 -27.390  0.2280E+01  0.2371E+01
 -27.380  0.2258E+01  0.2394E+01
 -27.370  0.2242E+01  0.2416E+01
 -27.360  0.2233E+01  0.2439E+01
 -27.350  0.2232E+01  0.2461E+01
 -27.340  0.2237E+01  0.2483E+01
 -27.330  0.2251E+01  0.2506E+01
 -27.320  0.2272E+01  0.2529E+01
 -27.310  0.2302E+01  0.2552E+01
 -27.300  0.2339E+01  0.2575E+01
 -27.290  0.2386E+01  0.2599E+01
 -27.280  0.2441E+01  0.2623E+01
 -27.270  0.2506E+01  0.2648E+01
 -27.260  0.2579E+01  0.2674E+01
 -27.250  0.2662E+01  0.2701E+01
 -27.240  0.2755E+01  0.2728E+01
 -27.230  0.2857E+01  0.2757E+01
 -27.220  0.2969E+01  0.2787E+01
 -27.210  0.3091E+01  0.2817E+01
 -27.200  0.3223E+01  0.2850E+01
 -27.190  0.3365E+01  0.2883E+01
 -27.180  0.3517E+01  0.2919E+01
 -27.170  0.3679E+01  0.2955E+01
 -27.160  0.3851E+01  0.2994E+01
 -27.150  0.4033E+01  0.3034E+01
 -27.140  0.4225E+01  0.3076E+01
 -27.130  0.4425E+01  0.3121E+01
 -27.120  0.4635E+01  0.3167E+01
 -27.110  0.4853E+01  0.3216E+01
 -27.100  0.5079E+01  0.3266E+01
 -27.090  0.5312E+01  0.3319E+01
 -27.080  0.5552E+01  0.3375E+01
 -27.070  0.5798E+01  0.3433E+01
 -27.060  0.6049E+01  0.3493E+01
 -27.050  0.6303E+01  0.3556E+01
 -27.040  0.6561E+01  0.3622E+01
 -27.030  0.6821E+01  0.3690E+01
 -27.020  0.7081E+01  0.3761E+01
 -27.010  0.7341E+01  0.3835E+01
 -27.000  0.7599E+01  0.3910E+01
 -26.990  0.7853E+01  0.3989E+01
 -26.980  0.8102E+01  0.4070E+01
 -26.970  0.8345E+01  0.4153E+01
 -26.960  0.8581E+01  0.4239E+01
 -26.950  0.8807E+01  0.4327E+01
 -26.940  0.9022E+01  0.4418E+01
 -26.930  0.9225E+01  0.4510E+01
 -26.920  0.9414E+01  0.4604E+01
 -26.910  0.9588E+01  0.4700E+01
 -26.900  0.9746E+01  0.4797E+01
 -26.890  0.9886E+01  0.4896E+01
 -26.880  0.1001E+02  0.4996E+01
 -26.870  0.1011E+02  0.5097E+01
 -26.860  0.1019E+02  0.5199E+01
 -26.850  0.1025E+02  0.5302E+01
 -26.840  0.1029E+02  0.5405E+01
 -26.830  0.1030E+02  0.5508E+01
 -26.820  0.1030E+02  0.5611E+01
 -26.810  0.1027E+02  0.5713E+01
 -26.800  0.1022E+02  0.5815E+01
 -26.790  0.1014E+02  0.5917E+01
 -26.780  0.1005E+02  0.6017E+01
 -26.770  0.9931E+01  0.6117E+01
 -26.760  0.9794E+01  0.6215E+01
 -26.750  0.9637E+01  0.6311E+01
 -26.740  0.9461E+01  0.6406E+01
 -26.730  0.9269E+01  0.6498E+01
 -26.720  0.9060E+01  0.6589E+01
 -26.710  0.8836E+01  0.6677E+01
 -26.700  0.8599E+01  0.6763E+01
 -26.690  0.8350E+01  0.6847E+01
 -26.680  0.8090E+01  0.6928E+01
 -26.670  0.7821E+01  0.7006E+01
 -26.660  0.7545E+01  0.7081E+01
 -26.650  0.7263E+01  0.7154E+01
 -26.640  0.6976E+01  0.7224E+01
 -26.630  0.6686E+01  0.7291E+01
 -26.620  0.6394E+01  0.7354E+01
 -26.610  0.6102E+01  0.7415E+01
 -26.600  0.5811E+01  0.7474E+01
 -26.590  0.5522E+01  0.7529E+01
 -26.580  0.5235E+01  0.7581E+01
 -26.570  0.4953E+01  0.7631E+01
 -26.560  0.4675E+01  0.7677E+01
 -26.550  0.4402E+01  0.7721E+01
 -26.540  0.4136E+01  0.7763E+01
 -26.530  0.3876E+01  0.7802E+01
 -26.520  0.3624E+01  0.7838E+01
 -26.510  0.3379E+01  0.7872E+01
 -26.500  0.3141E+01  0.7903E+01
 -26.490  0.2911E+01  0.7932E+01
 -26.480  0.2690E+01  0.7959E+01
 -26.470  0.2476E+01  0.7984E+01
 -26.460  0.2271E+01  0.8007E+01
 -26.450  0.2074E+01  0.8027E+01
 -26.440  0.1885E+01  0.8046E+01
 -26.430  0.1704E+01  0.8063E+01
 -26.420  0.1530E+01  0.8078E+01
 -26.410  0.1365E+01  0.8092E+01
 -26.400  0.1208E+01  0.8104E+01
 -26.390  0.1058E+01  0.8115E+01
 -26.380  0.9151E+00  0.8124E+01
 -26.370  0.7800E+00  0.8132E+01
 -26.360  0.6522E+00  0.8138E+01
 -26.350  0.5316E+00  0.8144E+01
 -26.340  0.4181E+00  0.8148E+01
 -26.330  0.3116E+00  0.8151E+01
 -26.320  0.2121E+00  0.8153E+01
 -26.310  0.1193E+00  0.8154E+01
 -26.300  0.3329E-01  0.8154E+01
 -26.290 -0.4608E-01  0.8154E+01
 -26.280 -0.1189E+00  0.8153E+01
 -26.270 -0.1853E+00  0.8151E+01
 -26.260 -0.2454E+00  0.8149E+01
 -26.250 -0.2993E+00  0.8146E+01
 -26.240 -0.3472E+00  0.8142E+01
 -26.230 -0.3892E+00  0.8138E+01
 -26.220 -0.4255E+00  0.8134E+01
 -26.210 -0.4563E+00  0.8129E+01
 -26.200 -0.4819E+00  0.8125E+01
 -26.190 -0.5024E+00  0.8119E+01
 -26.180 -0.5181E+00  0.8114E+01
 -26.170 -0.5293E+00  0.8109E+01
 -26.160 -0.5363E+00  0.8104E+01
 -26.150 -0.5393E+00  0.8098E+01
 -26.140 -0.5386E+00  0.8093E+01
 -26.130 -0.5346E+00  0.8088E+01
 -26.120 -0.5276E+00  0.8082E+01
 -26.110 -0.5179E+00  0.8077E+01
 -26.100 -0.5057E+00  0.8072E+01
 -26.090 -0.4914E+00  0.8067E+01
 -26.080 -0.4754E+00  0.8062E+01
 -26.070 -0.4578E+00  0.8058E+01
 -26.060 -0.4390E+00  0.8053E+01
 -26.050 -0.4192E+00  0.8049E+01
 -26.040 -0.3987E+00  0.8045E+01
 -26.030 -0.3777E+00  0.8041E+01
 -26.020 -0.3565E+00  0.8038E+01
 -26.010 -0.3352E+00  0.8035E+01
 -26.000 -0.3141E+00  0.8031E+01
 -25.990 -0.2932E+00  0.8028E+01
 -25.980 -0.2728E+00  0.8026E+01
 -25.970 -0.2529E+00  0.8023E+01
 -25.960 -0.2336E+00  0.8021E+01
 -25.950 -0.2151E+00  0.8019E+01
 -25.940 -0.1974E+00  0.8017E+01
 -25.930 -0.1806E+00  0.8015E+01
 -25.920 -0.1647E+00  0.8013E+01
 -25.910 -0.1496E+00  0.8012E+01
 -25.900 -0.1356E+00  0.8010E+01
 -25.890 -0.1224E+00  0.8009E+01
 -25.880 -0.1102E+00  0.8008E+01
 -25.870 -0.9890E-01  0.8007E+01
 -25.860 -0.8847E-01  0.8006E+01
 -25.850 -0.7891E-01  0.8005E+01
 -25.840 -0.7016E-01  0.8005E+01
 -25.830 -0.6219E-01  0.8004E+01
 -25.820 -0.5496E-01  0.8004E+01
 -25.810 -0.4843E-01  0.8003E+01
 -25.800 -0.4254E-01  0.8003E+01
 -25.790 -0.3726E-01  0.8002E+01
 -25.780 -0.3254E-01  0.8002E+01
 -25.770 -0.2833E-01  0.8002E+01
 -25.760 -0.2459E-01  0.8001E+01
 -25.750 -0.2128E-01  0.8001E+01
 -25.740 -0.1837E-01  0.8001E+01
 -25.730 -0.1580E-01  0.8001E+01
 -25.720 -0.1356E-01  0.8001E+01
 -25.710 -0.1160E-01  0.8001E+01
 -25.700 -0.9894E-02  0.8001E+01
 -25.690 -0.8415E-02  0.8000E+01
 -25.680 -0.7136E-02  0.8000E+01
 -25.670 -0.6035E-02  0.8000E+01
 -25.660 -0.5088E-02  0.8000E+01
 -25.650 -0.4278E-02  0.8000E+01
 -25.640 -0.3587E-02  0.8000E+01
 -25.630 -0.2999E-02  0.8000E+01
 -25.620 -0.2500E-02  0.8000E+01
 -25.610 -0.2078E-02  0.8000E+01
 -25.600 -0.1722E-02  0.8000E+01
 -25.590 -0.1423E-02  0.8000E+01
 -25.580 -0.1173E-02  0.8000E+01
 -25.570 -0.9642E-03  0.8000E+01
 -25.560 -0.7902E-03  0.8000E+01
 -25.550 -0.6458E-03  0.8000E+01
 -25.540 -0.5262E-03  0.8000E+01
 -25.530 -0.4276E-03  0.8000E+01
 -25.520 -0.3465E-03  0.8000E+01
 -25.510 -0.2800E-03  0.8000E+01
 -25.500 -0.2256E-03  0.8000E+01
 -25.490 -0.1813E-03  0.8000E+01
 -25.480 -0.1453E-03  0.8000E+01
 -25.470 -0.1161E-03  0.8000E+01
 -25.460 -0.9251E-04  0.8000E+01
 -25.450 -0.7350E-04  0.8000E+01
 -25.440 -0.5824E-04  0.8000E+01
 -25.430 -0.4602E-04  0.8000E+01
 -25.420 -0.3626E-04  0.8000E+01
 -25.410 -0.2850E-04  0.8000E+01
 -25.400 -0.2233E-04  0.8000E+01
 -25.390 -0.1745E-04  0.8000E+01
 -25.380 -0.1360E-04  0.8000E+01
 -25.370 -0.1057E-04  0.8000E+01
 -25.360 -0.8187E-05  0.8000E+01
 -25.350 -0.6327E-05  0.8000E+01
 -25.340 -0.4876E-05  0.8000E+01
 -25.330 -0.3747E-05  0.8000E+01
 -25.320 -0.2872E-05  0.8000E+01
 -25.310 -0.2195E-05  0.8000E+01
 -25.300 -0.1673E-05  0.8000E+01
 -25.290 -0.1271E-05  0.8000E+01
 -25.280 -0.9634E-06  0.8000E+01
 -25.270 -0.7282E-06  0.8000E+01
 -25.260 -0.5489E-06  0.8000E+01
 -25.250 -0.4126E-06  0.8000E+01
 -25.240 -0.3093E-06  0.8000E+01
 -25.230 -0.2312E-06  0.8000E+01
 -25.220 -0.1723E-06  0.8000E+01
 -25.210 -0.1281E-06  0.8000E+01
 -25.200 -0.9497E-07  0.8000E+01
 -25.190 -0.7022E-07  0.8000E+01
 -25.180 -0.5177E-07  0.8000E+01
 -25.170 -0.3806E-07  0.8000E+01
 -25.160 -0.2791E-07  0.8000E+01
 -25.150 -0.2041E-07  0.8000E+01
 -25.140 -0.1488E-07  0.8000E+01
 -25.130 -0.1082E-07  0.8000E+01
 -25.120 -0.7847E-08  0.8000E+01
 -25.110 -0.5675E-08  0.8000E+01
 -25.100 -0.4093E-08  0.8000E+01
 -25.090 -0.2944E-08  0.8000E+01
 -25.080 -0.2111E-08  0.8000E+01
 -25.070 -0.1510E-08  0.8000E+01
 -25.060 -0.1077E-08  0.8000E+01
 -25.050 -0.7663E-09  0.8000E+01
 -25.040 -0.5436E-09  0.8000E+01
 -25.030 -0.3846E-09  0.8000E+01
 -25.020 -0.2714E-09  0.8000E+01
 -25.010 -0.1909E-09  0.8000E+01
 -25.000 -0.1340E-09  0.8000E+01
 -24.990 -0.9374E-10  0.8000E+01
 -24.980 -0.6541E-10  0.8000E+01
 -24.970 -0.4552E-10  0.8000E+01
 -24.960 -0.3159E-10  0.8000E+01
 -24.950 -0.2186E-10  0.8000E+01
 -24.940 -0.1509E-10  0.8000E+01
 -24.930 -0.1039E-10  0.8000E+01
 -24.920 -0.7130E-11  0.8000E+01
 -24.910 -0.4881E-11  0.8000E+01
 -24.900 -0.3332E-11  0.8000E+01
 -24.890 -0.2269E-11  0.8000E+01
 -24.880 -0.1540E-11  0.8000E+01
 -24.870 -0.1043E-11  0.8000E+01
 -24.860 -0.7043E-12  0.8000E+01
 -24.850 -0.4743E-12  0.8000E+01
 -24.840 -0.3185E-12  0.8000E+01
 -24.830 -0.2133E-12  0.8000E+01
 -24.820 -0.1425E-12  0.8000E+01
 -24.810 -0.9489E-13  0.8000E+01
 -24.800 -0.6303E-13  0.8000E+01
 -24.790 -0.4175E-13  0.8000E+01
 -24.780 -0.2758E-13  0.8000E+01
 -24.770 -0.1817E-13  0.8000E+01
 -24.760 -0.1194E-13  0.8000E+01
 -24.750 -0.7824E-14  0.8000E+01
 -24.740 -0.5112E-14  0.8000E+01
 -24.730 -0.3331E-14  0.8000E+01
 -24.720 -0.2165E-14  0.8000E+01
 -24.710 -0.1403E-14  0.8000E+01
 -24.700 -0.9069E-15  0.8000E+01
 -24.690 -0.5846E-15  0.8000E+01
 -24.680 -0.3758E-15  0.8000E+01
 -24.670 -0.2409E-15  0.8000E+01
 -24.660 -0.1540E-15  0.8000E+01
 -24.650 -0.9820E-16  0.8000E+01
 -24.640 -0.6244E-16  0.8000E+01
 -24.630 -0.3959E-16  0.8000E+01
 -24.620 -0.2504E-16  0.8000E+01
 -24.610 -0.1579E-16  0.8000E+01
 -24.600 -0.9930E-17  0.8000E+01
 -24.590 -0.6229E-17  0.8000E+01
 -24.580 -0.3896E-17  0.8000E+01
 -24.570 -0.2430E-17  0.8000E+01
 -24.560 -0.1512E-17  0.8000E+01
 -24.550 -0.9380E-18  0.8000E+01
 -24.540 -0.5804E-18  0.8000E+01
 -24.530 -0.3581E-18  0.8000E+01
 -24.520 -0.2204E-18  0.8000E+01
 -24.510 -0.1352E-18  0.8000E+01
 -24.500 -0.8277E-19  0.8000E+01
 -24.490 -0.5052E-19  0.8000E+01
 -24.480 -0.3075E-19  0.8000E+01
 -24.470 -0.1867E-19  0.8000E+01
 -24.460 -0.1130E-19  0.8000E+01
 -24.450 -0.6822E-20  0.8000E+01
 -24.440 -0.4107E-20  0.8000E+01
 -24.430 -0.2466E-20  0.8000E+01
 -24.420 -0.1477E-20  0.8000E+01
 -24.410 -0.8820E-21  0.8000E+01
 -24.400 -0.5253E-21  0.8000E+01
 -24.390 -0.3120E-21  0.8000E+01
 -24.380 -0.1848E-21  0.8000E+01
 -24.370 -0.1092E-21  0.8000E+01
 -24.360 -0.6431E-22  0.8000E+01
 -24.350 -0.3778E-22  0.8000E+01
 -24.340 -0.2214E-22  0.8000E+01
 -24.330 -0.1294E-22  0.8000E+01
 -24.320 -0.7538E-23  0.8000E+01
 -24.310 -0.4381E-23  0.8000E+01
 -24.300 -0.2539E-23  0.8000E+01
 -24.290 -0.1467E-23  0.8000E+01
 -24.280 -0.8458E-24  0.8000E+01
 -24.270 -0.4862E-24  0.8000E+01
 -24.260 -0.2788E-24  0.8000E+01
 -24.250 -0.1594E-24  0.8000E+01
 -24.240 -0.9087E-25  0.8000E+01
 -24.230 -0.5167E-25  0.8000E+01
 -24.220 -0.2930E-25  0.8000E+01
 -24.210 -0.1657E-25  0.8000E+01
 -24.200 -0.9347E-26  0.8000E+01
 -24.190 -0.5258E-26  0.8000E+01
 -24.180 -0.2949E-26  0.8000E+01
 -24.170 -0.1650E-26  0.8000E+01
 -24.160 -0.9205E-27  0.8000E+01
 -24.150 -0.5122E-27  0.8000E+01
 -24.140 -0.2842E-27  0.8000E+01
 -24.130 -0.1573E-27  0.8000E+01
 -24.120 -0.8679E-28  0.8000E+01
 -24.110 -0.4777E-28  0.8000E+01
 -24.100 -0.2622E-28  0.8000E+01
 -24.090 -0.1435E-28  0.8000E+01
 -24.080 -0.7835E-29  0.8000E+01
 -24.070 -0.4266E-29  0.8000E+01
 -24.060 -0.2316E-29  0.8000E+01
 -24.050 -0.1254E-29  0.8000E+01
 -24.040 -0.6772E-30  0.8000E+01
 -24.030 -0.3647E-30  0.8000E+01
 -24.020 -0.1959E-30  0.8000E+01
 -24.010 -0.1049E-30  0.8000E+01
 -24.000 -0.5604E-31  0.8000E+01
 -23.990 -0.2986E-31  0.8000E+01
 -23.980 -0.1586E-31  0.8000E+01
 -23.970 -0.8404E-32  0.8000E+01
 -23.960 -0.4441E-32  0.8000E+01
 -23.950 -0.2340E-32  0.8000E+01
 -23.940 -0.1230E-32  0.8000E+01
 -23.930 -0.6445E-33  0.8000E+01
 -23.920 -0.3369E-33  0.8000E+01
 -23.910 -0.1756E-33  0.8000E+01
 -23.900 -0.9129E-34  0.8000E+01
 -23.890 -0.4733E-34  0.8000E+01
 -23.880 -0.2447E-34  0.8000E+01
 -23.870 -0.1262E-34  0.8000E+01
 -23.860 -0.6489E-35  0.8000E+01
 -23.850 -0.3328E-35  0.8000E+01
 -23.840 -0.1702E-35  0.8000E+01
 -23.830 -0.8682E-36  0.8000E+01
 -23.820 -0.4416E-36  0.8000E+01
 -23.810 -0.2240E-36  0.8000E+01
 -23.800 -0.1134E-36  0.8000E+01
 -23.790 -0.5719E-37  0.8000E+01
 -23.780 -0.2878E-37  0.8000E+01
 -23.770 -0.1444E-37  0.8000E+01
 -23.760 -0.7228E-38  0.8000E+01
 -23.750 -0.3608E-38  0.8000E+01
 -23.740 -0.1796E-38  0.8000E+01
 -23.730 -0.8914E-39  0.8000E+01
 -23.720 -0.4413E-39  0.8000E+01
 -23.710 -0.2179E-39  0.8000E+01
 -23.700 -0.1073E-39  0.8000E+01
 -23.690 -0.5268E-40  0.8000E+01
 -23.680 -0.2580E-40  0.8000E+01
 -23.670 -0.1260E-40  0.8000E+01
 -23.660 -0.6138E-41  0.8000E+01
 -23.650 -0.2981E-41  0.8000E+01
 -23.640 -0.1444E-41  0.8000E+01
 -23.630 -0.6978E-42  0.8000E+01
 -23.620 -0.3362E-42  0.8000E+01
 -23.610 -0.1616E-42  0.8000E+01
 -23.600 -0.7742E-43  0.8000E+01
 -23.590 -0.3700E-43  0.8000E+01
 -23.580 -0.1763E-43  0.8000E+01
 -23.570 -0.8382E-44  0.8000E+01
 -23.560 -0.3973E-44  0.8000E+01
 -23.550 -0.1878E-44  0.8000E+01
 -23.540 -0.8857E-45  0.8000E+01
 -23.530 -0.4164E-45  0.8000E+01
 -23.520 -0.1953E-45  0.8000E+01
 -23.510 -0.9132E-46  0.8000E+01
 -23.500 -0.4259E-46  0.8000E+01
 -23.490 -0.1981E-46  0.8000E+01
 -23.480 -0.9189E-47  0.8000E+01
 -23.470 -0.4251E-47  0.8000E+01
 -23.460 -0.1961E-47  0.8000E+01
 -23.450 -0.9024E-48  0.8000E+01
 -23.440 -0.4141E-48  0.8000E+01
 -23.430 -0.1895E-48  0.8000E+01
 -23.420 -0.8648E-49  0.8000E+01
 -23.410 -0.3936E-49  0.8000E+01
 -23.400 -0.1787E-49  0.8000E+01
 -23.390 -0.8088E-50  0.8000E+01
 -23.380 -0.3651E-50  0.8000E+01
 -23.370 -0.1644E-50  0.8000E+01
 -23.360 -0.7382E-51  0.8000E+01
 -23.350 -0.3306E-51  0.8000E+01
 -23.340 -0.1476E-51  0.8000E+01
 -23.330 -0.6575E-52  0.8000E+01
 -23.320 -0.2921E-52  0.8000E+01
 -23.310 -0.1294E-52  0.8000E+01
 -23.300 -0.5715E-53  0.8000E+01
 -23.290 -0.2518E-53  0.8000E+01
 -23.280 -0.1106E-53  0.8000E+01
 -23.270 -0.4848E-54  0.8000E+01
 -23.260 -0.2119E-54  0.8000E+01
 -23.250 -0.9235E-55  0.8000E+01
 -23.240 -0.4014E-55  0.8000E+01
 -23.230 -0.1740E-55  0.8000E+01
 -23.220 -0.7522E-56  0.8000E+01
 -23.210 -0.3243E-56  0.8000E+01
 -23.200 -0.1394E-56  0.8000E+01
 -23.190 -0.5979E-57  0.8000E+01
 -23.180 -0.2557E-57  0.8000E+01
 -23.170 -0.1090E-57  0.8000E+01
 -23.160 -0.4638E-58  0.8000E+01
 -23.150 -0.1967E-58  0.8000E+01
 -23.140 -0.8322E-59  0.8000E+01
 -23.130 -0.3511E-59  0.8000E+01
 -23.120 -0.1477E-59  0.8000E+01
 -23.110 -0.6199E-60  0.8000E+01
 -23.100 -0.2594E-60  0.8000E+01
 -23.090 -0.1083E-60  0.8000E+01
 -23.080 -0.4506E-61  0.8000E+01
 -23.070 -0.1870E-61  0.8000E+01
 -23.060 -0.7743E-62  0.8000E+01
 -23.050 -0.3197E-62  0.8000E+01
 -23.040 -0.1316E-62  0.8000E+01
 -23.030 -0.5404E-63  0.8000E+01
 -23.020 -0.2213E-63  0.8000E+01
 -23.010 -0.9038E-64  0.8000E+01
 -23.000 -0.3681E-64  0.8000E+01
 -22.990 -0.1495E-64  0.8000E+01
 -22.980 -0.6057E-65  0.8000E+01
 -22.970 -0.2447E-65  0.8000E+01
 -22.960 -0.9859E-66  0.8000E+01
 -22.950 -0.3961E-66  0.8000E+01
 -22.940 -0.1587E-66  0.8000E+01
 -22.930 -0.6344E-67  0.8000E+01
 -22.920 -0.2528E-67  0.8000E+01
 -22.910 -0.1005E-67  0.8000E+01
 -22.900 -0.3984E-68  0.8000E+01
 -22.890 -0.1575E-68  0.8000E+01
 -22.880 -0.6210E-69  0.8000E+01
 -22.870 -0.2442E-69  0.8000E+01
 -22.860 -0.9574E-70  0.8000E+01
 -22.850 -0.3744E-70  0.8000E+01
 -22.840 -0.1460E-70  0.8000E+01
 -22.830 -0.5680E-71  0.8000E+01
 -22.820 -0.2203E-71  0.8000E+01
 -22.810 -0.8524E-72  0.8000E+01
 -22.800 -0.3289E-72  0.8000E+01
 -22.790 -0.1265E-72  0.8000E+01
 -22.780 -0.4856E-73  0.8000E+01
 -22.770 -0.1858E-73  0.8000E+01
 -22.760 -0.7093E-74  0.8000E+01
 -22.750 -0.2700E-74  0.8000E+01
 -22.740 -0.1025E-74  0.8000E+01
 -22.730 -0.3880E-75  0.8000E+01
 -22.720 -0.1465E-75  0.8000E+01
 -22.710 -0.5515E-76  0.8000E+01
 -22.700 -0.2071E-76  0.8000E+01
 -22.690 -0.7756E-77  0.8000E+01
 -22.680 -0.2897E-77  0.8000E+01
 -22.670 -0.1079E-77  0.8000E+01
 -22.660 -0.4008E-78  0.8000E+01
 -22.650 -0.1485E-78  0.8000E+01
 -22.640 -0.5485E-79  0.8000E+01
 -22.630 -0.2020E-79  0.8000E+01
 -22.620 -0.7417E-80  0.8000E+01
 -22.610 -0.2712E-80  0.8000E+01
 -22.600 -0.9845E-81  0.8000E+01
 -22.590 -0.3522E-81  0.8000E+01
 -22.580 -0.1214E-81  0.8000E+01
 -22.570 -0.3741E-82  0.8000E+01
 -22.560 -0.6911E-83  0.8000E+01
 -22.550  0.4128E-83  0.8000E+01
 -22.540  0.8108E-83  0.8000E+01
 -22.530  0.9536E-83  0.8000E+01
 -22.520  0.1004E-82  0.8000E+01
 -22.510  0.1022E-82  0.8000E+01
 -22.500  0.1027E-82  0.8000E+01
 -22.490  0.1028E-82  0.8000E+01
 -22.480  0.1028E-82  0.8000E+01
 -22.470  0.1027E-82  0.8000E+01
 -22.460  0.1026E-82  0.8000E+01
 -22.450  0.1027E-82  0.8000E+01
 -22.440  0.1029E-82  0.8000E+01
 -22.430  0.1038E-82  0.8000E+01
 -22.420  0.1065E-82  0.8000E+01
 -22.410  0.1142E-82  0.8000E+01
 -22.400  0.1355E-82  0.8000E+01
 -22.390  0.1947E-82  0.8000E+01
 -22.380  0.3581E-82  0.8000E+01
 -22.370  0.8078E-82  0.8000E+01
 -22.360  0.2042E-81  0.8000E+01
 -22.350  0.5419E-81  0.8000E+01
 -22.340  0.1463E-80  0.8000E+01
 -22.330  0.3971E-80  0.8000E+01
 -22.320  0.1078E-79  0.8000E+01
 -22.310  0.2920E-79  0.8000E+01
 -22.300  0.7893E-79  0.8000E+01
 -22.290  0.2128E-78  0.8000E+01
 -22.280  0.5722E-78  0.8000E+01
 -22.270  0.1535E-77  0.8000E+01
 -22.260  0.4104E-77  0.8000E+01
 -22.250  0.1095E-76  0.8000E+01
 -22.240  0.2912E-76  0.8000E+01
 -22.230  0.7726E-76  0.8000E+01
 -22.220  0.2044E-75  0.8000E+01
 -22.210  0.5394E-75  0.8000E+01
 -22.200  0.1420E-74  0.8000E+01
 -22.190  0.3725E-74  0.8000E+01
 -22.180  0.9751E-74  0.8000E+01
 -22.170  0.2545E-73  0.8000E+01
 -22.160  0.6626E-73  0.8000E+01
 -22.150  0.1720E-72  0.8000E+01
 -22.140  0.4454E-72  0.8000E+01
 -22.130  0.1150E-71  0.8000E+01
 -22.120  0.2962E-71  0.8000E+01
 -22.110  0.7607E-71  0.8000E+01
 -22.100  0.1948E-70  0.8000E+01
 -22.090  0.4977E-70  0.8000E+01
 -22.080  0.1268E-69  0.8000E+01
 -22.070  0.3221E-69  0.8000E+01
 -22.060  0.8162E-69  0.8000E+01
 -22.050  0.2062E-68  0.8000E+01
 -22.040  0.5197E-68  0.8000E+01
 -22.030  0.1306E-67  0.8000E+01
 -22.020  0.3274E-67  0.8000E+01
 -22.010  0.8185E-67  0.8000E+01
 -22.000  0.2040E-66  0.8000E+01
 -21.990  0.5073E-66  0.8000E+01
 -21.980  0.1258E-65  0.8000E+01
 -21.970  0.3111E-65  0.8000E+01
 -21.960  0.7671E-65  0.8000E+01
 -21.950  0.1887E-64  0.8000E+01
 -21.940  0.4628E-64  0.8000E+01
 -21.930  0.1132E-63  0.8000E+01
 -21.920  0.2762E-63  0.8000E+01
 -21.910  0.6720E-63  0.8000E+01
 -21.900  0.1631E-62  0.8000E+01
 -21.890  0.3946E-62  0.8000E+01
 -21.880  0.9523E-62  0.8000E+01
 -21.870  0.2292E-61  0.8000E+01
 -21.860  0.5502E-61  0.8000E+01
 -21.850  0.1317E-60  0.8000E+01
 -21.840  0.3144E-60  0.8000E+01
 -21.830  0.7487E-60  0.8000E+01
 -21.820  0.1778E-59  0.8000E+01
 -21.810  0.4210E-59  0.8000E+01
 -21.800  0.9943E-59  0.8000E+01
 -21.790  0.2342E-58  0.8000E+01
 -21.780  0.5501E-58  0.8000E+01
 -21.770  0.1289E-57  0.8000E+01
 -21.760  0.3011E-57  0.8000E+01
 -21.750  0.7015E-57  0.8000E+01
 -21.740  0.1630E-56  0.8000E+01
 -21.730  0.3778E-56  0.8000E+01
 -21.720  0.8731E-56  0.8000E+01
 -21.710  0.2012E-55  0.8000E+01
 -21.700  0.4626E-55  0.8000E+01
 -21.690  0.1060E-54  0.8000E+01
 -21.680  0.2425E-54  0.8000E+01
 -21.670  0.5528E-54  0.8000E+01
 -21.660  0.1257E-53  0.8000E+01
 -21.650  0.2851E-53  0.8000E+01
 -21.640  0.6448E-53  0.8000E+01
 -21.630  0.1454E-52  0.8000E+01
 -21.620  0.3271E-52  0.8000E+01
 -21.610  0.7339E-52  0.8000E+01
 -21.600  0.1642E-51  0.8000E+01
 -21.590  0.3664E-51  0.8000E+01
 -21.580  0.8153E-51  0.8000E+01
 -21.570  0.1809E-50  0.8000E+01
 -21.560  0.4005E-50  0.8000E+01
 -21.550  0.8840E-50  0.8000E+01
 -21.540  0.1946E-49  0.8000E+01
 -21.530  0.4272E-49  0.8000E+01
 -21.520  0.9353E-49  0.8000E+01
 -21.510  0.2042E-48  0.8000E+01
 -21.500  0.4447E-48  0.8000E+01
 -21.490  0.9659E-48  0.8000E+01
 -21.480  0.2092E-47  0.8000E+01
 -21.470  0.4519E-47  0.8000E+01
 -21.460  0.9734E-47  0.8000E+01
 -21.450  0.2091E-46  0.8000E+01
 -21.440  0.4481E-46  0.8000E+01
 -21.430  0.9574E-46  0.8000E+01
 -21.420  0.2040E-45  0.8000E+01
 -21.410  0.4336E-45  0.8000E+01
 -21.400  0.9190E-45  0.8000E+01
 -21.390  0.1943E-44  0.8000E+01
 -21.380  0.4095E-44  0.8000E+01
 -21.370  0.8609E-44  0.8000E+01
 -21.360  0.1805E-43  0.8000E+01
 -21.350  0.3775E-43  0.8000E+01
 -21.340  0.7871E-43  0.8000E+01
 -21.330  0.1637E-42  0.8000E+01
 -21.320  0.3395E-42  0.8000E+01
 -21.310  0.7023E-42  0.8000E+01
 -21.300  0.1449E-41  0.8000E+01
 -21.290  0.2981E-41  0.8000E+01
 -21.280  0.6116E-41  0.8000E+01
 -21.270  0.1251E-40  0.8000E+01
 -21.260  0.2554E-40  0.8000E+01
 -21.250  0.5198E-40  0.8000E+01
 -21.240  0.1055E-39  0.8000E+01
 -21.230  0.2135E-39  0.8000E+01
 -21.220  0.4311E-39  0.8000E+01
 -21.210  0.8679E-39  0.8000E+01
 -21.200  0.1743E-38  0.8000E+01
 -21.190  0.3489E-38  0.8000E+01
 -21.180  0.6968E-38  0.8000E+01
 -21.170  0.1388E-37  0.8000E+01
 -21.160  0.2756E-37  0.8000E+01
 -21.150  0.5460E-37  0.8000E+01
 -21.140  0.1079E-36  0.8000E+01
 -21.130  0.2125E-36  0.8000E+01
 -21.120  0.4176E-36  0.8000E+01
 -21.110  0.8182E-36  0.8000E+01
 -21.100  0.1599E-35  0.8000E+01
 -21.090  0.3116E-35  0.8000E+01
 -21.080  0.6057E-35  0.8000E+01
 -21.070  0.1174E-34  0.8000E+01
 -21.060  0.2270E-34  0.8000E+01
 -21.050  0.4376E-34  0.8000E+01
 -21.040  0.8414E-34  0.8000E+01
 -21.030  0.1613E-33  0.8000E+01
 -21.020  0.3085E-33  0.8000E+01
 -21.010  0.5884E-33  0.8000E+01
 -21.000  0.1119E-32  0.8000E+01
 -20.990  0.2123E-32  0.8000E+01
 -20.980  0.4016E-32  0.8000E+01
 -20.970  0.7577E-32  0.8000E+01
 -20.960  0.1426E-31  0.8000E+01
 -20.950  0.2675E-31  0.8000E+01
 -20.940  0.5006E-31  0.8000E+01
 -20.930  0.9343E-31  0.8000E+01
 -20.920  0.1739E-30  0.8000E+01
 -20.910  0.3228E-30  0.8000E+01
 -20.900  0.5976E-30  0.8000E+01
 -20.890  0.1103E-29  0.8000E+01
 -20.880  0.2031E-29  0.8000E+01
 -20.870  0.3730E-29  0.8000E+01
 -20.860  0.6831E-29  0.8000E+01
 -20.850  0.1248E-28  0.8000E+01
 -20.840  0.2272E-28  0.8000E+01
 -20.830  0.4128E-28  0.8000E+01
 -20.820  0.7477E-28  0.8000E+01
 -20.810  0.1351E-27  0.8000E+01
 -20.800  0.2434E-27  0.8000E+01
 -20.790  0.4374E-27  0.8000E+01
 -20.780  0.7838E-27  0.8000E+01
 -20.770  0.1401E-26  0.8000E+01
 -20.760  0.2497E-26  0.8000E+01
 -20.750  0.4438E-26  0.8000E+01
 -20.740  0.7867E-26  0.8000E+01
 -20.730  0.1391E-25  0.8000E+01
 -20.720  0.2452E-25  0.8000E+01
 -20.710  0.4312E-25  0.8000E+01
 -20.700  0.7562E-25  0.8000E+01
 -20.690  0.1322E-24  0.8000E+01
 -20.680  0.2307E-24  0.8000E+01
 -20.670  0.4012E-24  0.8000E+01
 -20.660  0.6960E-24  0.8000E+01
 -20.650  0.1204E-23  0.8000E+01
 -20.640  0.2077E-23  0.8000E+01
 -20.630  0.3575E-23  0.8000E+01
 -20.620  0.6134E-23  0.8000E+01
 -20.610  0.1050E-22  0.8000E+01
 -20.600  0.1792E-22  0.8000E+01
 -20.590  0.3050E-22  0.8000E+01
 -20.580  0.5177E-22  0.8000E+01
 -20.570  0.8764E-22  0.8000E+01
 -20.560  0.1480E-21  0.8000E+01
 -20.550  0.2492E-21  0.8000E+01
 -20.540  0.4184E-21  0.8000E+01
 -20.530  0.7007E-21  0.8000E+01
 -20.520  0.1170E-20  0.8000E+01
 -20.510  0.1949E-20  0.8000E+01
 -20.500  0.3238E-20  0.8000E+01
 -20.490  0.5364E-20  0.8000E+01
 -20.480  0.8862E-20  0.8000E+01
 -20.470  0.1460E-19  0.8000E+01
 -20.460  0.2399E-19  0.8000E+01
 -20.450  0.3932E-19  0.8000E+01
 -20.440  0.6426E-19  0.8000E+01
 -20.430  0.1047E-18  0.8000E+01
 -20.420  0.1703E-18  0.8000E+01
 -20.410  0.2760E-18  0.8000E+01
 -20.400  0.4462E-18  0.8000E+01
 -20.390  0.7194E-18  0.8000E+01
 -20.380  0.1157E-17  0.8000E+01
 -20.370  0.1855E-17  0.8000E+01
 -20.360  0.2967E-17  0.8000E+01
 -20.350  0.4732E-17  0.8000E+01
 -20.340  0.7527E-17  0.8000E+01
 -20.330  0.1194E-16  0.8000E+01
 -20.320  0.1889E-16  0.8000E+01
 -20.310  0.2980E-16  0.8000E+01
 -20.300  0.4689E-16  0.8000E+01
 -20.290  0.7358E-16  0.8000E+01
 -20.280  0.1152E-15  0.8000E+01
 -20.270  0.1797E-15  0.8000E+01
 -20.260  0.2797E-15  0.8000E+01
 -20.250  0.4342E-15  0.8000E+01
 -20.240  0.6722E-15  0.8000E+01
 -20.230  0.1038E-14  0.8000E+01
 -20.220  0.1598E-14  0.8000E+01
 -20.210  0.2454E-14  0.8000E+01
 -20.200  0.3757E-14  0.8000E+01
 -20.190  0.5738E-14  0.8000E+01
 -20.180  0.8740E-14  0.8000E+01
 -20.170  0.1328E-13  0.8000E+01
 -20.160  0.2011E-13  0.8000E+01
 -20.150  0.3038E-13  0.8000E+01
 -20.140  0.4577E-13  0.8000E+01
 -20.130  0.6878E-13  0.8000E+01
 -20.120  0.1031E-12  0.8000E+01
 -20.110  0.1540E-12  0.8000E+01
 -20.100  0.2295E-12  0.8000E+01
 -20.090  0.3412E-12  0.8000E+01
 -20.080  0.5057E-12  0.8000E+01
 -20.070  0.7476E-12  0.8000E+01
 -20.060  0.1102E-11  0.8000E+01
 -20.050  0.1621E-11  0.8000E+01
 -20.040  0.2376E-11  0.8000E+01
 -20.030  0.3475E-11  0.8000E+01
 -20.020  0.5068E-11  0.8000E+01
 -20.010  0.7370E-11  0.8000E+01
 -20.000  0.1069E-10  0.8000E+01
 -19.990  0.1546E-10  0.8000E+01
 -19.980  0.2231E-10  0.8000E+01
 -19.970  0.3209E-10  0.8000E+01
 -19.960  0.4605E-10  0.8000E+01
 -19.950  0.6589E-10  0.8000E+01
 -19.940  0.9403E-10  0.8000E+01
 -19.930  0.1338E-09  0.8000E+01
 -19.920  0.1899E-09  0.8000E+01
 -19.910  0.2688E-09  0.8000E+01
 -19.900  0.3795E-09  0.8000E+01
 -19.890  0.5342E-09  0.8000E+01
 -19.880  0.7500E-09  0.8000E+01
 -19.870  0.1050E-08  0.8000E+01
 -19.860  0.1466E-08  0.8000E+01
 -19.850  0.2042E-08  0.8000E+01
 -19.840  0.2836E-08  0.8000E+01
 -19.830  0.3928E-08  0.8000E+01
 -19.820  0.5425E-08  0.8000E+01
 -19.810  0.7473E-08  0.8000E+01
 -19.800  0.1027E-07  0.8000E+01
 -19.790  0.1407E-07  0.8000E+01
 -19.780  0.1922E-07  0.8000E+01
 -19.770  0.2619E-07  0.8000E+01
 -19.760  0.3559E-07  0.8000E+01
 -19.750  0.4823E-07  0.8000E+01
 -19.740  0.6518E-07  0.8000E+01
 -19.730  0.8785E-07  0.8000E+01
 -19.720  0.1181E-06  0.8000E+01
 -19.710  0.1583E-06  0.8000E+01
 -19.700  0.2116E-06  0.8000E+01
 -19.690  0.2822E-06  0.8000E+01
 -19.680  0.3752E-06  0.8000E+01
 -19.670  0.4976E-06  0.8000E+01
 -19.660  0.6580E-06  0.8000E+01
 -19.650  0.8678E-06  0.8000E+01
 -19.640  0.1141E-05  0.8000E+01
 -19.630  0.1497E-05  0.8000E+01
 -19.620  0.1958E-05  0.8000E+01
 -19.610  0.2555E-05  0.8000E+01
 -19.600  0.3324E-05  0.8000E+01
 -19.590  0.4313E-05  0.8000E+01
 -19.580  0.5581E-05  0.8000E+01
 -19.570  0.7202E-05  0.8000E+01
 -19.560  0.9268E-05  0.8000E+01
 -19.550  0.1190E-04  0.8000E+01
 -19.540  0.1523E-04  0.8000E+01
 -19.530  0.1944E-04  0.8000E+01
 -19.520  0.2474E-04  0.8000E+01
 -19.510  0.3141E-04  0.8000E+01
 -19.500  0.3977E-04  0.8000E+01
 -19.490  0.5021E-04  0.8000E+01
 -19.480  0.6323E-04  0.8000E+01
 -19.470  0.7940E-04  0.8000E+01
 -19.460  0.9944E-04  0.8000E+01
 -19.450  0.1242E-03  0.8000E+01
 -19.440  0.1547E-03  0.8000E+01
 -19.430  0.1922E-03  0.8000E+01
 -19.420  0.2380E-03  0.8000E+01
 -19.410  0.2941E-03  0.8000E+01
 -19.400  0.3623E-03  0.8000E+01
 -19.390  0.4452E-03  0.8000E+01
 -19.380  0.5455E-03  0.8000E+01
 -19.370  0.6666E-03  0.8000E+01
 -19.360  0.8124E-03  0.8000E+01
 -19.350  0.9873E-03  0.8000E+01
 -19.340  0.1197E-02  0.8000E+01
 -19.330  0.1447E-02  0.8000E+01
 -19.320  0.1744E-02  0.8000E+01
 -19.310  0.2096E-02  0.8000E+01
 -19.300  0.2513E-02  0.8000E+01
 -19.290  0.3005E-02  0.8000E+01
 -19.280  0.3583E-02  0.8000E+01
 -19.270  0.4261E-02  0.8000E+01
 -19.260  0.5053E-02  0.8000E+01
 -19.250  0.5976E-02  0.8000E+01
 -19.240  0.7048E-02  0.8000E+01
 -19.230  0.8290E-02  0.8001E+01
 -19.220  0.9725E-02  0.8001E+01
 -19.210  0.1138E-01  0.8001E+01
 -19.200  0.1327E-01  0.8001E+01
 -19.190  0.1544E-01  0.8001E+01
 -19.180  0.1792E-01  0.8001E+01
 -19.170  0.2073E-01  0.8001E+01
 -19.160  0.2392E-01  0.8002E+01
 -19.150  0.2753E-01  0.8002E+01
 -19.140  0.3160E-01  0.8002E+01
 -19.130  0.3617E-01  0.8003E+01
 -19.120  0.4128E-01  0.8003E+01
 -19.110  0.4700E-01  0.8003E+01
 -19.100  0.5335E-01  0.8004E+01
 -19.090  0.6040E-01  0.8005E+01
 -19.080  0.6820E-01  0.8005E+01
 -19.070  0.7679E-01  0.8006E+01
 -19.060  0.8623E-01  0.8007E+01
 -19.050  0.9657E-01  0.8008E+01
 -19.040  0.1079E+00  0.8009E+01
 -19.030  0.1201E+00  0.8010E+01
 -19.020  0.1334E+00  0.8012E+01
 -19.010  0.1478E+00  0.8013E+01
 -19.000  0.1633E+00  0.8015E+01
 -18.990  0.1799E+00  0.8016E+01
 -18.980  0.1977E+00  0.8018E+01
 -18.970  0.2166E+00  0.8021E+01
 -18.960  0.2367E+00  0.8023E+01
 -18.950  0.2580E+00  0.8026E+01
 -18.940  0.2804E+00  0.8028E+01
 -18.930  0.3039E+00  0.8031E+01
 -18.920  0.3286E+00  0.8035E+01
 -18.910  0.3542E+00  0.8038E+01
 -18.900  0.3809E+00  0.8042E+01
 -18.890  0.4084E+00  0.8046E+01
 -18.880  0.4368E+00  0.8050E+01
 -18.870  0.4658E+00  0.8055E+01
 -18.860  0.4955E+00  0.8060E+01
 -18.850  0.5257E+00  0.8065E+01
 -18.840  0.5562E+00  0.8071E+01
 -18.830  0.5869E+00  0.8077E+01
 -18.820  0.6177E+00  0.8083E+01
 -18.810  0.6483E+00  0.8089E+01
 -18.800  0.6787E+00  0.8096E+01
 -18.790  0.7087E+00  0.8103E+01
 -18.780  0.7380E+00  0.8111E+01
 -18.770  0.7665E+00  0.8118E+01
 -18.760  0.7941E+00  0.8126E+01
 -18.750  0.8205E+00  0.8134E+01
 -18.740  0.8457E+00  0.8143E+01
 -18.730  0.8693E+00  0.8152E+01
 -18.720  0.8914E+00  0.8161E+01
 -18.710  0.9117E+00  0.8170E+01
 -18.700  0.9302E+00  0.8179E+01
 -18.690  0.9466E+00  0.8188E+01
 -18.680  0.9610E+00  0.8198E+01
 -18.670  0.9733E+00  0.8208E+01
 -18.660  0.9833E+00  0.8218E+01
 -18.650  0.9911E+00  0.8227E+01
 -18.640  0.9966E+00  0.8237E+01
 -18.630  0.9998E+00  0.8247E+01
 -18.620  0.1001E+01  0.8257E+01
 -18.610  0.9995E+00  0.8267E+01
 -18.600  0.9961E+00  0.8277E+01
 -18.590  0.9905E+00  0.8287E+01
 -18.580  0.9830E+00  0.8297E+01
 -18.570  0.9736E+00  0.8307E+01
 -18.560  0.9624E+00  0.8317E+01
 -18.550  0.9496E+00  0.8326E+01
 -18.540  0.9352E+00  0.8335E+01
 -18.530  0.9195E+00  0.8345E+01
 -18.520  0.9026E+00  0.8354E+01
 -18.510  0.8846E+00  0.8362E+01
 -18.500  0.8658E+00  0.8371E+01
 -18.490  0.8463E+00  0.8380E+01
 -18.480  0.8262E+00  0.8388E+01
 -18.470  0.8057E+00  0.8396E+01
 -18.460  0.7850E+00  0.8404E+01
 -18.450  0.7641E+00  0.8411E+01
 -18.440  0.7433E+00  0.8419E+01
 -18.430  0.7227E+00  0.8426E+01
 -18.420  0.7024E+00  0.8433E+01
 -18.410  0.6824E+00  0.8440E+01
 -18.400  0.6630E+00  0.8447E+01
 -18.390  0.6441E+00  0.8453E+01
 -18.380  0.6259E+00  0.8459E+01
 -18.370  0.6084E+00  0.8465E+01
 -18.360  0.5917E+00  0.8471E+01
 -18.350  0.5757E+00  0.8477E+01
 -18.340  0.5606E+00  0.8483E+01
 -18.330  0.5464E+00  0.8488E+01
 -18.320  0.5330E+00  0.8493E+01
 -18.310  0.5204E+00  0.8499E+01
 -18.300  0.5087E+00  0.8504E+01
 -18.290  0.4978E+00  0.8509E+01
 -18.280  0.4877E+00  0.8514E+01
 -18.270  0.4784E+00  0.8518E+01
 -18.260  0.4699E+00  0.8523E+01
 -18.250  0.4620E+00  0.8528E+01
 -18.240  0.4549E+00  0.8532E+01
 -18.230  0.4483E+00  0.8537E+01
 -18.220  0.4424E+00  0.8541E+01
 -18.210  0.4370E+00  0.8545E+01
 -18.200  0.4321E+00  0.8550E+01
 -18.190  0.4277E+00  0.8554E+01
 -18.180  0.4237E+00  0.8558E+01
 -18.170  0.4201E+00  0.8562E+01
 -18.160  0.4170E+00  0.8567E+01
 -18.150  0.4141E+00  0.8571E+01
 -18.140  0.4116E+00  0.8575E+01
 -18.130  0.4093E+00  0.8579E+01
 -18.120  0.4074E+00  0.8583E+01
 -18.110  0.4057E+00  0.8587E+01
 -18.100  0.4042E+00  0.8591E+01
 -18.090  0.4030E+00  0.8595E+01
 -18.080  0.4021E+00  0.8599E+01
 -18.070  0.4014E+00  0.8603E+01
 -18.060  0.4009E+00  0.8607E+01
 -18.050  0.4007E+00  0.8611E+01
 -18.040  0.4008E+00  0.8615E+01
 -18.030  0.4011E+00  0.8619E+01
 -18.020  0.4018E+00  0.8623E+01
 -18.010  0.4028E+00  0.8627E+01
 -18.000  0.4043E+00  0.8631E+01
 -17.990  0.4061E+00  0.8635E+01
 -17.980  0.4083E+00  0.8640E+01
 -17.970  0.4111E+00  0.8644E+01
 -17.960  0.4143E+00  0.8648E+01
 -17.950  0.4182E+00  0.8652E+01
 -17.940  0.4227E+00  0.8656E+01
 -17.930  0.4278E+00  0.8660E+01
 -17.920  0.4337E+00  0.8665E+01
 -17.910  0.4404E+00  0.8669E+01
 -17.900  0.4479E+00  0.8674E+01
 -17.890  0.4563E+00  0.8678E+01
 -17.880  0.4656E+00  0.8683E+01
 -17.870  0.4760E+00  0.8688E+01
 -17.860  0.4874E+00  0.8693E+01
 -17.850  0.4999E+00  0.8698E+01
 -17.840  0.5135E+00  0.8703E+01
 -17.830  0.5283E+00  0.8708E+01
 -17.820  0.5443E+00  0.8713E+01
 -17.810  0.5615E+00  0.8719E+01
 -17.800  0.5800E+00  0.8725E+01
 -17.790  0.5997E+00  0.8731E+01
 -17.780  0.6206E+00  0.8737E+01
 -17.770  0.6428E+00  0.8743E+01
 -17.760  0.6662E+00  0.8750E+01
 -17.750  0.6907E+00  0.8757E+01
 -17.740  0.7164E+00  0.8764E+01
 -17.730  0.7431E+00  0.8772E+01
 -17.720  0.7708E+00  0.8779E+01
 -17.710  0.7994E+00  0.8787E+01
 -17.700  0.8288E+00  0.8796E+01
 -17.690  0.8588E+00  0.8804E+01
 -17.680  0.8894E+00  0.8813E+01
 -17.670  0.9203E+00  0.8822E+01
 -17.660  0.9516E+00  0.8832E+01
 -17.650  0.9829E+00  0.8842E+01
 -17.640  0.1014E+01  0.8852E+01
 -17.630  0.1045E+01  0.8862E+01
 -17.620  0.1076E+01  0.8873E+01
 -17.610  0.1106E+01  0.8884E+01
 -17.600  0.1135E+01  0.8895E+01
 -17.590  0.1163E+01  0.8907E+01
 -17.580  0.1190E+01  0.8919E+01
 -17.570  0.1215E+01  0.8931E+01
 -17.560  0.1239E+01  0.8943E+01
 -17.550  0.1262E+01  0.8956E+01
 -17.540  0.1283E+01  0.8969E+01
 -17.530  0.1301E+01  0.8982E+01
 -17.520  0.1318E+01  0.8995E+01
 -17.510  0.1332E+01  0.9008E+01
 -17.500  0.1344E+01  0.9022E+01
 -17.490  0.1354E+01  0.9035E+01
 -17.480  0.1362E+01  0.9049E+01
 -17.470  0.1367E+01  0.9063E+01
 -17.460  0.1370E+01  0.9076E+01
 -17.450  0.1370E+01  0.9090E+01
 -17.440  0.1368E+01  0.9104E+01
 -17.430  0.1364E+01  0.9117E+01
 -17.420  0.1357E+01  0.9131E+01
 -17.410  0.1348E+01  0.9144E+01
 -17.400  0.1338E+01  0.9158E+01
 -17.390  0.1325E+01  0.9171E+01
 -17.380  0.1311E+01  0.9184E+01
 -17.370  0.1295E+01  0.9197E+01
 -17.360  0.1278E+01  0.9210E+01
 -17.350  0.1259E+01  0.9222E+01
 -17.340  0.1240E+01  0.9235E+01
 -17.330  0.1219E+01  0.9247E+01
 -17.320  0.1198E+01  0.9259E+01
 -17.310  0.1176E+01  0.9271E+01
 -17.300  0.1153E+01  0.9282E+01
 -17.290  0.1130E+01  0.9294E+01
 -17.280  0.1108E+01  0.9305E+01
 -17.270  0.1085E+01  0.9316E+01
 -17.260  0.1062E+01  0.9326E+01
 -17.250  0.1040E+01  0.9337E+01
 -17.240  0.1018E+01  0.9347E+01
 -17.230  0.9967E+00  0.9357E+01
 -17.220  0.9759E+00  0.9366E+01
 -17.210  0.9559E+00  0.9376E+01
 -17.200  0.9366E+00  0.9385E+01
 -17.190  0.9181E+00  0.9395E+01
 -17.180  0.9004E+00  0.9404E+01
 -17.170  0.8837E+00  0.9412E+01
 -17.160  0.8678E+00  0.9421E+01
 -17.150  0.8528E+00  0.9430E+01
 -17.140  0.8388E+00  0.9438E+01
 -17.130  0.8256E+00  0.9446E+01
 -17.120  0.8133E+00  0.9454E+01
 -17.110  0.8019E+00  0.9462E+01
 -17.100  0.7913E+00  0.9470E+01
 -17.090  0.7815E+00  0.9478E+01
 -17.080  0.7725E+00  0.9486E+01
 -17.070  0.7642E+00  0.9494E+01
 -17.060  0.7565E+00  0.9501E+01
 -17.050  0.7495E+00  0.9509E+01
 -17.040  0.7430E+00  0.9516E+01
 -17.030  0.7371E+00  0.9523E+01
 -17.020  0.7317E+00  0.9531E+01
 -17.010  0.7267E+00  0.9538E+01
 -17.000  0.7221E+00  0.9545E+01
 -16.990  0.7179E+00  0.9552E+01
 -16.980  0.7140E+00  0.9560E+01
 -16.970  0.7104E+00  0.9567E+01
 -16.960  0.7070E+00  0.9574E+01
 -16.950  0.7039E+00  0.9581E+01
 -16.940  0.7009E+00  0.9588E+01
 -16.930  0.6981E+00  0.9595E+01
 -16.920  0.6955E+00  0.9602E+01
 -16.910  0.6930E+00  0.9609E+01
 -16.900  0.6906E+00  0.9616E+01
 -16.890  0.6883E+00  0.9622E+01
 -16.880  0.6860E+00  0.9629E+01
 -16.870  0.6838E+00  0.9636E+01
 -16.860  0.6817E+00  0.9643E+01
 -16.850  0.6796E+00  0.9650E+01
 -16.840  0.6775E+00  0.9656E+01
 -16.830  0.6755E+00  0.9663E+01
 -16.820  0.6735E+00  0.9670E+01
 -16.810  0.6715E+00  0.9677E+01
 -16.800  0.6695E+00  0.9683E+01
 -16.790  0.6676E+00  0.9690E+01
 -16.780  0.6656E+00  0.9697E+01
 -16.770  0.6637E+00  0.9703E+01
 -16.760  0.6618E+00  0.9710E+01
 -16.750  0.6599E+00  0.9717E+01
 -16.740  0.6580E+00  0.9723E+01
 -16.730  0.6561E+00  0.9730E+01
 -16.720  0.6542E+00  0.9736E+01
 -16.710  0.6524E+00  0.9743E+01
 -16.700  0.6505E+00  0.9749E+01
 -16.690  0.6487E+00  0.9756E+01
 -16.680  0.6469E+00  0.9762E+01
 -16.670  0.6451E+00  0.9769E+01
 -16.660  0.6433E+00  0.9775E+01
 -16.650  0.6416E+00  0.9782E+01
 -16.640  0.6398E+00  0.9788E+01
 -16.630  0.6381E+00  0.9794E+01
 -16.620  0.6364E+00  0.9801E+01
 -16.610  0.6347E+00  0.9807E+01
 -16.600  0.6331E+00  0.9813E+01
 -16.590  0.6314E+00  0.9820E+01
 -16.580  0.6298E+00  0.9826E+01
 -16.570  0.6282E+00  0.9832E+01
 -16.560  0.6266E+00  0.9839E+01
 -16.550  0.6251E+00  0.9845E+01
 -16.540  0.6236E+00  0.9851E+01
 -16.530  0.6221E+00  0.9857E+01
 -16.520  0.6206E+00  0.9863E+01
 -16.510  0.6192E+00  0.9870E+01
 -16.500  0.6178E+00  0.9876E+01
 -16.490  0.6164E+00  0.9882E+01
 -16.480  0.6150E+00  0.9888E+01
 -16.470  0.6137E+00  0.9894E+01
 -16.460  0.6124E+00  0.9900E+01
 -16.450  0.6112E+00  0.9906E+01
 -16.440  0.6100E+00  0.9913E+01
 -16.430  0.6088E+00  0.9919E+01
 -16.420  0.6076E+00  0.9925E+01
 -16.410  0.6065E+00  0.9931E+01
 -16.400  0.6055E+00  0.9937E+01
 -16.390  0.6044E+00  0.9943E+01
 -16.380  0.6035E+00  0.9949E+01
 -16.370  0.6026E+00  0.9955E+01
 -16.360  0.6017E+00  0.9961E+01
 -16.350  0.6010E+00  0.9967E+01
 -16.340  0.6003E+00  0.9973E+01
 -16.330  0.5997E+00  0.9979E+01
 -16.320  0.5992E+00  0.9985E+01
 -16.310  0.5988E+00  0.9991E+01
 -16.300  0.5985E+00  0.9997E+01
 -16.290  0.5984E+00  0.1000E+02
 -16.280  0.5984E+00  0.1001E+02
 -16.270  0.5986E+00  0.1001E+02
 -16.260  0.5990E+00  0.1002E+02
 -16.250  0.5996E+00  0.1003E+02
 -16.240  0.6005E+00  0.1003E+02
 -16.230  0.6016E+00  0.1004E+02
 -16.220  0.6030E+00  0.1004E+02
 -16.210  0.6048E+00  0.1005E+02
 -16.200  0.6070E+00  0.1006E+02
 -16.190  0.6095E+00  0.1006E+02
 -16.180  0.6126E+00  0.1007E+02
 -16.170  0.6161E+00  0.1008E+02
 -16.160  0.6202E+00  0.1008E+02
 -16.150  0.6250E+00  0.1009E+02
 -16.140  0.6304E+00  0.1009E+02
 -16.130  0.6365E+00  0.1010E+02
 -16.120  0.6434E+00  0.1011E+02
 -16.110  0.6512E+00  0.1011E+02
 -16.100  0.6599E+00  0.1012E+02
 -16.090  0.6696E+00  0.1013E+02
 -16.080  0.6803E+00  0.1013E+02
 -16.070  0.6922E+00  0.1014E+02
 -16.060  0.7052E+00  0.1015E+02
 -16.050  0.7195E+00  0.1015E+02
 -16.040  0.7351E+00  0.1016E+02
 -16.030  0.7521E+00  0.1017E+02
 -16.020  0.7705E+00  0.1018E+02
 -16.010  0.7904E+00  0.1019E+02
 -16.000  0.8118E+00  0.1019E+02
 -15.990  0.8347E+00  0.1020E+02
 -15.980  0.8593E+00  0.1021E+02
 -15.970  0.8854E+00  0.1022E+02
 -15.960  0.9131E+00  0.1023E+02
 -15.950  0.9424E+00  0.1024E+02
 -15.940  0.9733E+00  0.1025E+02
 -15.930  0.1006E+01  0.1026E+02
 -15.920  0.1040E+01  0.1027E+02
 -15.910  0.1075E+01  0.1028E+02
 -15.900  0.1112E+01  0.1029E+02
 -15.890  0.1150E+01  0.1030E+02
 -15.880  0.1189E+01  0.1031E+02
 -15.870  0.1229E+01  0.1033E+02
 -15.860  0.1270E+01  0.1034E+02
 -15.850  0.1312E+01  0.1035E+02
 -15.840  0.1354E+01  0.1036E+02
 -15.830  0.1397E+01  0.1038E+02
 -15.820  0.1441E+01  0.1039E+02
 -15.810  0.1484E+01  0.1041E+02
 -15.800  0.1527E+01  0.1042E+02
 -15.790  0.1570E+01  0.1044E+02
 -15.780  0.1613E+01  0.1046E+02
 -15.770  0.1655E+01  0.1047E+02
 -15.760  0.1695E+01  0.1049E+02
 -15.750  0.1735E+01  0.1051E+02
 -15.740  0.1774E+01  0.1052E+02
 -15.730  0.1811E+01  0.1054E+02
 -15.720  0.1847E+01  0.1056E+02
 -15.710  0.1881E+01  0.1058E+02
 -15.700  0.1913E+01  0.1060E+02
 -15.690  0.1943E+01  0.1062E+02
 -15.680  0.1971E+01  0.1064E+02
 -15.670  0.1997E+01  0.1066E+02
 -15.660  0.2021E+01  0.1068E+02
 -15.650  0.2042E+01  0.1070E+02
 -15.640  0.2061E+01  0.1072E+02
 -15.630  0.2077E+01  0.1074E+02
 -15.620  0.2092E+01  0.1076E+02
 -15.610  0.2103E+01  0.1078E+02
 -15.600  0.2113E+01  0.1080E+02
 -15.590  0.2120E+01  0.1082E+02
 -15.580  0.2125E+01  0.1084E+02
 -15.570  0.2128E+01  0.1087E+02
 -15.560  0.2129E+01  0.1089E+02
 -15.550  0.2128E+01  0.1091E+02
 -15.540  0.2125E+01  0.1093E+02
 -15.530  0.2120E+01  0.1095E+02
 -15.520  0.2114E+01  0.1097E+02
 -15.510  0.2106E+01  0.1099E+02
 -15.500  0.2096E+01  0.1101E+02
 -15.490  0.2085E+01  0.1104E+02
 -15.480  0.2073E+01  0.1106E+02
 -15.470  0.2060E+01  0.1108E+02
 -15.460  0.2046E+01  0.1110E+02
 -15.450  0.2030E+01  0.1112E+02
 -15.440  0.2014E+01  0.1114E+02
 -15.430  0.1997E+01  0.1116E+02
 -15.420  0.1979E+01  0.1118E+02
 -15.410  0.1961E+01  0.1120E+02
 -15.400  0.1942E+01  0.1122E+02
 -15.390  0.1922E+01  0.1124E+02
 -15.380  0.1901E+01  0.1125E+02
 -15.370  0.1880E+01  0.1127E+02
 -15.360  0.1858E+01  0.1129E+02
 -15.350  0.1836E+01  0.1131E+02
 -15.340  0.1813E+01  0.1133E+02
 -15.330  0.1789E+01  0.1135E+02
 -15.320  0.1765E+01  0.1136E+02
 -15.310  0.1740E+01  0.1138E+02
 -15.300  0.1714E+01  0.1140E+02
 -15.290  0.1687E+01  0.1142E+02
 -15.280  0.1660E+01  0.1143E+02
 -15.270  0.1632E+01  0.1145E+02
 -15.260  0.1603E+01  0.1146E+02
 -15.250  0.1573E+01  0.1148E+02
 -15.240  0.1543E+01  0.1150E+02
 -15.230  0.1511E+01  0.1151E+02
 -15.220  0.1478E+01  0.1153E+02
 -15.210  0.1445E+01  0.1154E+02
 -15.200  0.1411E+01  0.1155E+02
 -15.190  0.1376E+01  0.1157E+02
 -15.180  0.1340E+01  0.1158E+02
 -15.170  0.1303E+01  0.1159E+02
 -15.160  0.1265E+01  0.1161E+02
 -15.150  0.1226E+01  0.1162E+02
 -15.140  0.1187E+01  0.1163E+02
 -15.130  0.1147E+01  0.1164E+02
 -15.120  0.1107E+01  0.1165E+02
 -15.110  0.1066E+01  0.1166E+02
 -15.100  0.1025E+01  0.1167E+02
 -15.090  0.9841E+00  0.1168E+02
 -15.080  0.9427E+00  0.1169E+02
 -15.070  0.9013E+00  0.1170E+02
 -15.060  0.8601E+00  0.1171E+02
 -15.050  0.8191E+00  0.1172E+02
 -15.040  0.7786E+00  0.1173E+02
 -15.030  0.7387E+00  0.1173E+02
 -15.020  0.6995E+00  0.1174E+02
 -15.010  0.6611E+00  0.1175E+02
 -15.000  0.6237E+00  0.1175E+02
 -14.990  0.5874E+00  0.1176E+02
 -14.980  0.5523E+00  0.1177E+02
 -14.970  0.5186E+00  0.1177E+02
 -14.960  0.4864E+00  0.1178E+02
 -14.950  0.4556E+00  0.1178E+02
 -14.940  0.4265E+00  0.1178E+02
 -14.930  0.3991E+00  0.1179E+02
 -14.920  0.3735E+00  0.1179E+02
 -14.910  0.3496E+00  0.1180E+02
 -14.900  0.3276E+00  0.1180E+02
 -14.890  0.3074E+00  0.1180E+02
 -14.880  0.2890E+00  0.1181E+02
 -14.870  0.2725E+00  0.1181E+02
 -14.860  0.2578E+00  0.1181E+02
 -14.850  0.2448E+00  0.1181E+02
 -14.840  0.2336E+00  0.1182E+02
 -14.830  0.2241E+00  0.1182E+02
 -14.820  0.2161E+00  0.1182E+02
 -14.810  0.2097E+00  0.1182E+02
 -14.800  0.2048E+00  0.1182E+02
 -14.790  0.2013E+00  0.1183E+02
 -14.780  0.1990E+00  0.1183E+02
 -14.770  0.1980E+00  0.1183E+02
 -14.760  0.1981E+00  0.1183E+02
 -14.750  0.1993E+00  0.1183E+02
 -14.740  0.2014E+00  0.1184E+02
 -14.730  0.2044E+00  0.1184E+02
 -14.720  0.2083E+00  0.1184E+02
 -14.710  0.2128E+00  0.1184E+02
 -14.700  0.2181E+00  0.1184E+02
 -14.690  0.2240E+00  0.1185E+02
 -14.680  0.2304E+00  0.1185E+02
 -14.670  0.2374E+00  0.1185E+02
 -14.660  0.2449E+00  0.1185E+02
 -14.650  0.2529E+00  0.1186E+02
 -14.640  0.2614E+00  0.1186E+02
 -14.630  0.2703E+00  0.1186E+02
 -14.620  0.2797E+00  0.1186E+02
 -14.610  0.2895E+00  0.1187E+02
 -14.600  0.2999E+00  0.1187E+02
 -14.590  0.3107E+00  0.1187E+02
 -14.580  0.3220E+00  0.1188E+02
 -14.570  0.3339E+00  0.1188E+02
 -14.560  0.3464E+00  0.1188E+02
 -14.550  0.3595E+00  0.1189E+02
 -14.540  0.3733E+00  0.1189E+02
 -14.530  0.3877E+00  0.1189E+02
 -14.520  0.4029E+00  0.1190E+02
 -14.510  0.4188E+00  0.1190E+02
 -14.500  0.4354E+00  0.1191E+02
 -14.490  0.4529E+00  0.1191E+02
 -14.480  0.4712E+00  0.1192E+02
 -14.470  0.4903E+00  0.1192E+02
 -14.460  0.5102E+00  0.1193E+02
 -14.450  0.5310E+00  0.1193E+02
 -14.440  0.5526E+00  0.1194E+02
 -14.430  0.5750E+00  0.1194E+02
 -14.420  0.5981E+00  0.1195E+02
 -14.410  0.6219E+00  0.1195E+02
 -14.400  0.6464E+00  0.1196E+02
 -14.390  0.6715E+00  0.1197E+02
 -14.380  0.6971E+00  0.1198E+02
 -14.370  0.7231E+00  0.1198E+02
 -14.360  0.7495E+00  0.1199E+02
 -14.350  0.7761E+00  0.1200E+02
 -14.340  0.8028E+00  0.1201E+02
 -14.330  0.8295E+00  0.1201E+02
 -14.320  0.8561E+00  0.1202E+02
 -14.310  0.8825E+00  0.1203E+02
 -14.300  0.9084E+00  0.1204E+02
 -14.290  0.9339E+00  0.1205E+02
 -14.280  0.9587E+00  0.1206E+02
 -14.270  0.9827E+00  0.1207E+02
 -14.260  0.1006E+01  0.1208E+02
 -14.250  0.1028E+01  0.1209E+02
 -14.240  0.1049E+01  0.1210E+02
 -14.230  0.1068E+01  0.1211E+02
 -14.220  0.1087E+01  0.1212E+02
 -14.210  0.1103E+01  0.1213E+02
 -14.200  0.1119E+01  0.1214E+02
 -14.190  0.1132E+01  0.1216E+02
 -14.180  0.1144E+01  0.1217E+02
 -14.170  0.1154E+01  0.1218E+02
 -14.160  0.1163E+01  0.1219E+02
 -14.150  0.1170E+01  0.1220E+02
 -14.140  0.1175E+01  0.1221E+02
 -14.130  0.1178E+01  0.1222E+02
 -14.120  0.1180E+01  0.1224E+02
 -14.110  0.1180E+01  0.1225E+02
 -14.100  0.1179E+01  0.1226E+02
 -14.090  0.1176E+01  0.1227E+02
 -14.080  0.1172E+01  0.1228E+02
 -14.070  0.1167E+01  0.1230E+02
 -14.060  0.1161E+01  0.1231E+02
 -14.050  0.1153E+01  0.1232E+02
 -14.040  0.1145E+01  0.1233E+02
 -14.030  0.1136E+01  0.1234E+02
 -14.020  0.1127E+01  0.1235E+02
 -14.010  0.1117E+01  0.1236E+02
 -14.000  0.1106E+01  0.1237E+02
 -13.990  0.1096E+01  0.1239E+02
 -13.980  0.1086E+01  0.1240E+02
 -13.970  0.1076E+01  0.1241E+02
 -13.960  0.1066E+01  0.1242E+02
 -13.950  0.1057E+01  0.1243E+02
 -13.940  0.1048E+01  0.1244E+02
 -13.930  0.1040E+01  0.1245E+02
 -13.920  0.1033E+01  0.1246E+02
 -13.910  0.1027E+01  0.1247E+02
 -13.900  0.1022E+01  0.1248E+02
 -13.890  0.1018E+01  0.1249E+02
 -13.880  0.1015E+01  0.1250E+02
 -13.870  0.1014E+01  0.1251E+02
 -13.860  0.1014E+01  0.1252E+02
 -13.850  0.1016E+01  0.1253E+02
 -13.840  0.1020E+01  0.1254E+02
 -13.830  0.1025E+01  0.1255E+02
 -13.820  0.1032E+01  0.1256E+02
 -13.810  0.1041E+01  0.1257E+02
 -13.800  0.1052E+01  0.1258E+02
 -13.790  0.1064E+01  0.1259E+02
 -13.780  0.1078E+01  0.1260E+02
 -13.770  0.1095E+01  0.1262E+02
 -13.760  0.1113E+01  0.1263E+02
 -13.750  0.1133E+01  0.1264E+02
 -13.740  0.1155E+01  0.1265E+02
 -13.730  0.1178E+01  0.1266E+02
 -13.720  0.1204E+01  0.1267E+02
 -13.710  0.1231E+01  0.1269E+02
 -13.700  0.1259E+01  0.1270E+02
 -13.690  0.1289E+01  0.1271E+02
 -13.680  0.1320E+01  0.1272E+02
 -13.670  0.1353E+01  0.1274E+02
 -13.660  0.1387E+01  0.1275E+02
 -13.650  0.1421E+01  0.1277E+02
 -13.640  0.1456E+01  0.1278E+02
 -13.630  0.1492E+01  0.1280E+02
 -13.620  0.1528E+01  0.1281E+02
 -13.610  0.1564E+01  0.1283E+02
 -13.600  0.1600E+01  0.1284E+02
 -13.590  0.1635E+01  0.1286E+02
 -13.580  0.1670E+01  0.1288E+02
 -13.570  0.1703E+01  0.1289E+02
 -13.560  0.1736E+01  0.1291E+02
 -13.550  0.1767E+01  0.1293E+02
 -13.540  0.1796E+01  0.1295E+02
 -13.530  0.1823E+01  0.1296E+02
 -13.520  0.1848E+01  0.1298E+02
 -13.510  0.1870E+01  0.1300E+02
 -13.500  0.1890E+01  0.1302E+02
 -13.490  0.1906E+01  0.1304E+02
 -13.480  0.1920E+01  0.1306E+02
 -13.470  0.1930E+01  0.1308E+02
 -13.460  0.1936E+01  0.1310E+02
 -13.450  0.1939E+01  0.1312E+02
 -13.440  0.1939E+01  0.1314E+02
 -13.430  0.1934E+01  0.1315E+02
 -13.420  0.1926E+01  0.1317E+02
 -13.410  0.1914E+01  0.1319E+02
 -13.400  0.1899E+01  0.1321E+02
 -13.390  0.1880E+01  0.1323E+02
 -13.380  0.1858E+01  0.1325E+02
 -13.370  0.1832E+01  0.1327E+02
 -13.360  0.1804E+01  0.1329E+02
 -13.350  0.1772E+01  0.1330E+02
 -13.340  0.1738E+01  0.1332E+02
 -13.330  0.1701E+01  0.1334E+02
 -13.320  0.1663E+01  0.1335E+02
 -13.310  0.1622E+01  0.1337E+02
 -13.300  0.1581E+01  0.1339E+02
 -13.290  0.1538E+01  0.1340E+02
 -13.280  0.1494E+01  0.1342E+02
 -13.270  0.1450E+01  0.1343E+02
 -13.260  0.1405E+01  0.1345E+02
 -13.250  0.1361E+01  0.1346E+02
 -13.240  0.1317E+01  0.1347E+02
 -13.230  0.1275E+01  0.1348E+02
 -13.220  0.1233E+01  0.1350E+02
 -13.210  0.1192E+01  0.1351E+02
 -13.200  0.1153E+01  0.1352E+02
 -13.190  0.1116E+01  0.1353E+02
 -13.180  0.1081E+01  0.1354E+02
 -13.170  0.1048E+01  0.1355E+02
 -13.160  0.1017E+01  0.1356E+02
 -13.150  0.9884E+00  0.1357E+02
 -13.140  0.9624E+00  0.1358E+02
 -13.130  0.9390E+00  0.1359E+02
 -13.120  0.9180E+00  0.1360E+02
 -13.110  0.8997E+00  0.1361E+02
 -13.100  0.8838E+00  0.1362E+02
 -13.090  0.8705E+00  0.1363E+02
 -13.080  0.8596E+00  0.1364E+02
 -13.070  0.8511E+00  0.1364E+02
 -13.060  0.8448E+00  0.1365E+02
 -13.050  0.8407E+00  0.1366E+02
 -13.040  0.8386E+00  0.1367E+02
 -13.030  0.8384E+00  0.1368E+02
 -13.020  0.8399E+00  0.1369E+02
 -13.010  0.8431E+00  0.1370E+02
 -13.000  0.8477E+00  0.1370E+02
 -12.990  0.8536E+00  0.1371E+02
 -12.980  0.8607E+00  0.1372E+02
 -12.970  0.8687E+00  0.1373E+02
 -12.960  0.8775E+00  0.1374E+02
 -12.950  0.8870E+00  0.1375E+02
 -12.940  0.8970E+00  0.1376E+02
 -12.930  0.9073E+00  0.1377E+02
 -12.920  0.9178E+00  0.1377E+02
 -12.910  0.9284E+00  0.1378E+02
 -12.900  0.9390E+00  0.1379E+02
 -12.890  0.9493E+00  0.1380E+02
 -12.880  0.9593E+00  0.1381E+02
 -12.870  0.9688E+00  0.1382E+02
 -12.860  0.9777E+00  0.1383E+02
 -12.850  0.9860E+00  0.1384E+02
 -12.840  0.9934E+00  0.1385E+02
 -12.830  0.1000E+01  0.1386E+02
 -12.820  0.1006E+01  0.1387E+02
 -12.810  0.1010E+01  0.1388E+02
 -12.800  0.1014E+01  0.1389E+02
 -12.790  0.1016E+01  0.1390E+02
 -12.780  0.1017E+01  0.1391E+02
 -12.770  0.1017E+01  0.1392E+02
 -12.760  0.1015E+01  0.1393E+02
 -12.750  0.1012E+01  0.1394E+02
 -12.740  0.1008E+01  0.1395E+02
 -12.730  0.1003E+01  0.1396E+02
 -12.720  0.9956E+00  0.1397E+02
 -12.710  0.9873E+00  0.1398E+02
 -12.700  0.9778E+00  0.1399E+02
 -12.690  0.9669E+00  0.1400E+02
 -12.680  0.9549E+00  0.1401E+02
 -12.670  0.9417E+00  0.1402E+02
 -12.660  0.9274E+00  0.1403E+02
 -12.650  0.9121E+00  0.1404E+02
 -12.640  0.8958E+00  0.1405E+02
 -12.630  0.8788E+00  0.1406E+02
 -12.620  0.8610E+00  0.1407E+02
 -12.610  0.8427E+00  0.1407E+02
 -12.600  0.8238E+00  0.1408E+02
 -12.590  0.8046E+00  0.1409E+02
 -12.580  0.7851E+00  0.1410E+02
 -12.570  0.7655E+00  0.1411E+02
 -12.560  0.7458E+00  0.1411E+02
 -12.550  0.7263E+00  0.1412E+02
 -12.540  0.7070E+00  0.1413E+02
 -12.530  0.6880E+00  0.1413E+02
 -12.520  0.6696E+00  0.1414E+02
 -12.510  0.6516E+00  0.1415E+02
 -12.500  0.6343E+00  0.1415E+02
 -12.490  0.6178E+00  0.1416E+02
 -12.480  0.6021E+00  0.1417E+02
 -12.470  0.5873E+00  0.1417E+02
 -12.460  0.5734E+00  0.1418E+02
 -12.450  0.5605E+00  0.1418E+02
 -12.440  0.5487E+00  0.1419E+02
 -12.430  0.5380E+00  0.1419E+02
 -12.420  0.5284E+00  0.1420E+02
 -12.410  0.5198E+00  0.1420E+02
 -12.400  0.5124E+00  0.1421E+02
 -12.390  0.5062E+00  0.1422E+02
 -12.380  0.5010E+00  0.1422E+02
 -12.370  0.4968E+00  0.1423E+02
 -12.360  0.4938E+00  0.1423E+02
 -12.350  0.4917E+00  0.1423E+02
 -12.340  0.4906E+00  0.1424E+02
 -12.330  0.4905E+00  0.1424E+02
 -12.320  0.4913E+00  0.1425E+02
 -12.310  0.4930E+00  0.1425E+02
 -12.300  0.4955E+00  0.1426E+02
 -12.290  0.4987E+00  0.1426E+02
 -12.280  0.5028E+00  0.1427E+02
 -12.270  0.5076E+00  0.1427E+02
 -12.260  0.5130E+00  0.1428E+02
 -12.250  0.5192E+00  0.1428E+02
 -12.240  0.5260E+00  0.1429E+02
 -12.230  0.5334E+00  0.1430E+02
 -12.220  0.5415E+00  0.1430E+02
 -12.210  0.5503E+00  0.1431E+02
 -12.200  0.5597E+00  0.1431E+02
 -12.190  0.5698E+00  0.1432E+02
 -12.180  0.5806E+00  0.1432E+02
 -12.170  0.5921E+00  0.1433E+02
 -12.160  0.6044E+00  0.1434E+02
 -12.150  0.6176E+00  0.1434E+02
 -12.140  0.6316E+00  0.1435E+02
 -12.130  0.6466E+00  0.1435E+02
 -12.120  0.6626E+00  0.1436E+02
 -12.110  0.6797E+00  0.1437E+02
 -12.100  0.6980E+00  0.1437E+02
 -12.090  0.7174E+00  0.1438E+02
 -12.080  0.7382E+00  0.1439E+02
 -12.070  0.7604E+00  0.1440E+02
 -12.060  0.7840E+00  0.1440E+02
 -12.050  0.8091E+00  0.1441E+02
 -12.040  0.8358E+00  0.1442E+02
 -12.030  0.8642E+00  0.1443E+02
 -12.020  0.8942E+00  0.1444E+02
 -12.010  0.9260E+00  0.1445E+02
 -12.000  0.9594E+00  0.1446E+02
 -11.990  0.9946E+00  0.1447E+02
 -11.980  0.1032E+01  0.1448E+02
 -11.970  0.1070E+01  0.1449E+02
 -11.960  0.1110E+01  0.1450E+02
 -11.950  0.1152E+01  0.1451E+02
 -11.940  0.1195E+01  0.1452E+02
 -11.930  0.1240E+01  0.1454E+02
 -11.920  0.1286E+01  0.1455E+02
 -11.910  0.1333E+01  0.1456E+02
 -11.900  0.1380E+01  0.1458E+02
 -11.890  0.1428E+01  0.1459E+02
 -11.880  0.1477E+01  0.1460E+02
 -11.870  0.1525E+01  0.1462E+02
 -11.860  0.1574E+01  0.1464E+02
 -11.850  0.1622E+01  0.1465E+02
 -11.840  0.1669E+01  0.1467E+02
 -11.830  0.1714E+01  0.1469E+02
 -11.820  0.1759E+01  0.1470E+02
 -11.810  0.1801E+01  0.1472E+02
 -11.800  0.1841E+01  0.1474E+02
 -11.790  0.1879E+01  0.1476E+02
 -11.780  0.1913E+01  0.1478E+02
 -11.770  0.1945E+01  0.1480E+02
 -11.760  0.1972E+01  0.1482E+02
 -11.750  0.1996E+01  0.1484E+02
 -11.740  0.2016E+01  0.1486E+02
 -11.730  0.2032E+01  0.1488E+02
 -11.720  0.2043E+01  0.1490E+02
 -11.710  0.2050E+01  0.1492E+02
 -11.700  0.2051E+01  0.1494E+02
 -11.690  0.2048E+01  0.1496E+02
 -11.680  0.2040E+01  0.1498E+02
 -11.670  0.2028E+01  0.1500E+02
 -11.660  0.2011E+01  0.1502E+02
 -11.650  0.1989E+01  0.1504E+02
 -11.640  0.1963E+01  0.1506E+02
 -11.630  0.1933E+01  0.1508E+02
 -11.620  0.1899E+01  0.1510E+02
 -11.610  0.1862E+01  0.1512E+02
 -11.600  0.1821E+01  0.1513E+02
 -11.590  0.1778E+01  0.1515E+02
 -11.580  0.1732E+01  0.1517E+02
 -11.570  0.1685E+01  0.1519E+02
 -11.560  0.1636E+01  0.1520E+02
 -11.550  0.1586E+01  0.1522E+02
 -11.540  0.1536E+01  0.1523E+02
 -11.530  0.1485E+01  0.1525E+02
 -11.520  0.1435E+01  0.1526E+02
 -11.510  0.1386E+01  0.1528E+02
 -11.500  0.1338E+01  0.1529E+02
 -11.490  0.1292E+01  0.1530E+02
 -11.480  0.1248E+01  0.1532E+02
 -11.470  0.1206E+01  0.1533E+02
 -11.460  0.1167E+01  0.1534E+02
 -11.450  0.1131E+01  0.1535E+02
 -11.440  0.1099E+01  0.1536E+02
 -11.430  0.1069E+01  0.1537E+02
 -11.420  0.1043E+01  0.1538E+02
 -11.410  0.1021E+01  0.1539E+02
 -11.400  0.1003E+01  0.1540E+02
 -11.390  0.9884E+00  0.1541E+02
 -11.380  0.9778E+00  0.1542E+02
 -11.370  0.9711E+00  0.1543E+02
 -11.360  0.9682E+00  0.1544E+02
 -11.350  0.9690E+00  0.1545E+02
 -11.340  0.9736E+00  0.1546E+02
 -11.330  0.9817E+00  0.1547E+02
 -11.320  0.9933E+00  0.1548E+02
 -11.310  0.1008E+01  0.1549E+02
 -11.300  0.1026E+01  0.1550E+02
 -11.290  0.1047E+01  0.1551E+02
 -11.280  0.1071E+01  0.1552E+02
 -11.270  0.1098E+01  0.1553E+02
 -11.260  0.1127E+01  0.1555E+02
 -11.250  0.1159E+01  0.1556E+02
 -11.240  0.1193E+01  0.1557E+02
 -11.230  0.1228E+01  0.1558E+02
 -11.220  0.1266E+01  0.1559E+02
 -11.210  0.1305E+01  0.1561E+02
 -11.200  0.1345E+01  0.1562E+02
 -11.190  0.1387E+01  0.1563E+02
 -11.180  0.1430E+01  0.1565E+02
 -11.170  0.1474E+01  0.1566E+02
 -11.160  0.1519E+01  0.1568E+02
 -11.150  0.1564E+01  0.1569E+02
 -11.140  0.1610E+01  0.1571E+02
 -11.130  0.1655E+01  0.1573E+02
 -11.120  0.1701E+01  0.1574E+02
 -11.110  0.1747E+01  0.1576E+02
 -11.100  0.1792E+01  0.1578E+02
 -11.090  0.1837E+01  0.1580E+02
 -11.080  0.1882E+01  0.1582E+02
 -11.070  0.1926E+01  0.1584E+02
 -11.060  0.1969E+01  0.1586E+02
 -11.050  0.2011E+01  0.1588E+02
 -11.040  0.2052E+01  0.1590E+02
 -11.030  0.2091E+01  0.1592E+02
 -11.020  0.2130E+01  0.1594E+02
 -11.010  0.2168E+01  0.1596E+02
 -11.000  0.2204E+01  0.1598E+02
 -10.990  0.2239E+01  0.1600E+02
 -10.980  0.2274E+01  0.1603E+02
 -10.970  0.2307E+01  0.1605E+02
 -10.960  0.2339E+01  0.1607E+02
 -10.950  0.2370E+01  0.1610E+02
 -10.940  0.2400E+01  0.1612E+02
 -10.930  0.2430E+01  0.1615E+02
 -10.920  0.2459E+01  0.1617E+02
 -10.910  0.2489E+01  0.1620E+02
 -10.900  0.2518E+01  0.1622E+02
 -10.890  0.2547E+01  0.1625E+02
 -10.880  0.2577E+01  0.1627E+02
 -10.870  0.2607E+01  0.1630E+02
 -10.860  0.2639E+01  0.1632E+02
 -10.850  0.2671E+01  0.1635E+02
 -10.840  0.2705E+01  0.1638E+02
 -10.830  0.2740E+01  0.1641E+02
 -10.820  0.2777E+01  0.1643E+02
 -10.810  0.2816E+01  0.1646E+02
 -10.800  0.2856E+01  0.1649E+02
 -10.790  0.2899E+01  0.1652E+02
 -10.780  0.2944E+01  0.1655E+02
 -10.770  0.2991E+01  0.1658E+02
 -10.760  0.3040E+01  0.1661E+02
 -10.750  0.3091E+01  0.1664E+02
 -10.740  0.3145E+01  0.1667E+02
 -10.730  0.3199E+01  0.1670E+02
 -10.720  0.3256E+01  0.1674E+02
 -10.710  0.3313E+01  0.1677E+02
 -10.700  0.3372E+01  0.1680E+02
 -10.690  0.3432E+01  0.1684E+02
 -10.680  0.3491E+01  0.1687E+02
 -10.670  0.3551E+01  0.1691E+02
 -10.660  0.3610E+01  0.1694E+02
 -10.650  0.3668E+01  0.1698E+02
 -10.640  0.3724E+01  0.1702E+02
 -10.630  0.3779E+01  0.1705E+02
 -10.620  0.3831E+01  0.1709E+02
 -10.610  0.3880E+01  0.1713E+02
 -10.600  0.3926E+01  0.1717E+02
 -10.590  0.3967E+01  0.1721E+02
 -10.580  0.4005E+01  0.1725E+02
 -10.570  0.4038E+01  0.1729E+02
 -10.560  0.4065E+01  0.1733E+02
 -10.550  0.4088E+01  0.1737E+02
 -10.540  0.4105E+01  0.1741E+02
 -10.530  0.4115E+01  0.1745E+02
 -10.520  0.4120E+01  0.1750E+02
 -10.510  0.4119E+01  0.1754E+02
 -10.500  0.4112E+01  0.1758E+02
 -10.490  0.4099E+01  0.1762E+02
 -10.480  0.4080E+01  0.1766E+02
 -10.470  0.4055E+01  0.1770E+02
 -10.460  0.4024E+01  0.1774E+02
 -10.450  0.3989E+01  0.1778E+02
 -10.440  0.3949E+01  0.1782E+02
 -10.430  0.3904E+01  0.1786E+02
 -10.420  0.3856E+01  0.1790E+02
 -10.410  0.3805E+01  0.1794E+02
 -10.400  0.3751E+01  0.1797E+02
 -10.390  0.3695E+01  0.1801E+02
 -10.380  0.3637E+01  0.1805E+02
 -10.370  0.3579E+01  0.1808E+02
 -10.360  0.3521E+01  0.1812E+02
 -10.350  0.3463E+01  0.1815E+02
 -10.340  0.3407E+01  0.1819E+02
 -10.330  0.3353E+01  0.1822E+02
 -10.320  0.3301E+01  0.1825E+02
 -10.310  0.3253E+01  0.1829E+02
 -10.300  0.3208E+01  0.1832E+02
 -10.290  0.3167E+01  0.1835E+02
 -10.280  0.3132E+01  0.1838E+02
 -10.270  0.3101E+01  0.1841E+02
 -10.260  0.3077E+01  0.1844E+02
 -10.250  0.3058E+01  0.1847E+02
 -10.240  0.3045E+01  0.1850E+02
 -10.230  0.3039E+01  0.1853E+02
 -10.220  0.3040E+01  0.1856E+02
 -10.210  0.3047E+01  0.1859E+02
 -10.200  0.3061E+01  0.1863E+02
 -10.190  0.3082E+01  0.1866E+02
 -10.180  0.3109E+01  0.1869E+02
 -10.170  0.3143E+01  0.1872E+02
 -10.160  0.3183E+01  0.1875E+02
 -10.150  0.3229E+01  0.1878E+02
 -10.140  0.3280E+01  0.1882E+02
 -10.130  0.3337E+01  0.1885E+02
 -10.120  0.3398E+01  0.1888E+02
 -10.110  0.3464E+01  0.1892E+02
 -10.100  0.3533E+01  0.1895E+02
 -10.090  0.3606E+01  0.1899E+02
 -10.080  0.3681E+01  0.1903E+02
 -10.070  0.3758E+01  0.1906E+02
 -10.060  0.3837E+01  0.1910E+02
 -10.050  0.3916E+01  0.1914E+02
 -10.040  0.3995E+01  0.1918E+02
 -10.030  0.4073E+01  0.1922E+02
 -10.020  0.4151E+01  0.1926E+02
 -10.010  0.4226E+01  0.1931E+02
 -10.000  0.4298E+01  0.1935E+02
  -9.990  0.4367E+01  0.1939E+02
  -9.980  0.4432E+01  0.1944E+02
  -9.970  0.4493E+01  0.1948E+02
  -9.960  0.4549E+01  0.1953E+02
  -9.950  0.4599E+01  0.1957E+02
  -9.940  0.4644E+01  0.1962E+02
  -9.930  0.4682E+01  0.1967E+02
  -9.920  0.4714E+01  0.1971E+02
  -9.910  0.4739E+01  0.1976E+02
  -9.900  0.4758E+01  0.1981E+02
  -9.890  0.4769E+01  0.1986E+02
  -9.880  0.4774E+01  0.1990E+02
  -9.870  0.4772E+01  0.1995E+02
  -9.860  0.4764E+01  0.2000E+02
  -9.850  0.4749E+01  0.2005E+02
  -9.840  0.4727E+01  0.2009E+02
  -9.830  0.4700E+01  0.2014E+02
  -9.820  0.4668E+01  0.2019E+02
  -9.810  0.4631E+01  0.2023E+02
  -9.800  0.4589E+01  0.2028E+02
  -9.790  0.4543E+01  0.2032E+02
  -9.780  0.4494E+01  0.2037E+02
  -9.770  0.4443E+01  0.2041E+02
  -9.760  0.4389E+01  0.2046E+02
  -9.750  0.4334E+01  0.2050E+02
  -9.740  0.4277E+01  0.2054E+02
  -9.730  0.4220E+01  0.2059E+02
  -9.720  0.4164E+01  0.2063E+02
  -9.710  0.4108E+01  0.2067E+02
  -9.700  0.4053E+01  0.2071E+02
  -9.690  0.4000E+01  0.2075E+02
  -9.680  0.3949E+01  0.2079E+02
  -9.670  0.3900E+01  0.2083E+02
  -9.660  0.3854E+01  0.2087E+02
  -9.650  0.3811E+01  0.2090E+02
  -9.640  0.3771E+01  0.2094E+02
  -9.630  0.3734E+01  0.2098E+02
  -9.620  0.3700E+01  0.2102E+02
  -9.610  0.3670E+01  0.2105E+02
  -9.600  0.3642E+01  0.2109E+02
  -9.590  0.3618E+01  0.2113E+02
  -9.580  0.3597E+01  0.2116E+02
  -9.570  0.3578E+01  0.2120E+02
  -9.560  0.3562E+01  0.2123E+02
  -9.550  0.3549E+01  0.2127E+02
  -9.540  0.3537E+01  0.2130E+02
  -9.530  0.3527E+01  0.2134E+02
  -9.520  0.3519E+01  0.2137E+02
  -9.510  0.3511E+01  0.2141E+02
  -9.500  0.3504E+01  0.2145E+02
  -9.490  0.3498E+01  0.2148E+02
  -9.480  0.3492E+01  0.2151E+02
  -9.470  0.3485E+01  0.2155E+02
  -9.460  0.3478E+01  0.2158E+02
  -9.450  0.3470E+01  0.2162E+02
  -9.440  0.3461E+01  0.2165E+02
  -9.430  0.3450E+01  0.2169E+02
  -9.420  0.3438E+01  0.2172E+02
  -9.410  0.3424E+01  0.2176E+02
  -9.400  0.3408E+01  0.2179E+02
  -9.390  0.3389E+01  0.2183E+02
  -9.380  0.3369E+01  0.2186E+02
  -9.370  0.3345E+01  0.2189E+02
  -9.360  0.3320E+01  0.2193E+02
  -9.350  0.3292E+01  0.2196E+02
  -9.340  0.3261E+01  0.2199E+02
  -9.330  0.3228E+01  0.2202E+02
  -9.320  0.3193E+01  0.2206E+02
  -9.310  0.3155E+01  0.2209E+02
  -9.300  0.3115E+01  0.2212E+02
  -9.290  0.3073E+01  0.2215E+02
  -9.280  0.3029E+01  0.2218E+02
  -9.270  0.2984E+01  0.2221E+02
  -9.260  0.2937E+01  0.2224E+02
  -9.250  0.2889E+01  0.2227E+02
  -9.240  0.2840E+01  0.2230E+02
  -9.230  0.2790E+01  0.2232E+02
  -9.220  0.2741E+01  0.2235E+02
  -9.210  0.2691E+01  0.2238E+02
  -9.200  0.2641E+01  0.2240E+02
  -9.190  0.2592E+01  0.2243E+02
  -9.180  0.2545E+01  0.2246E+02
  -9.170  0.2498E+01  0.2248E+02
  -9.160  0.2454E+01  0.2250E+02
  -9.150  0.2411E+01  0.2253E+02
  -9.140  0.2371E+01  0.2255E+02
  -9.130  0.2334E+01  0.2258E+02
  -9.120  0.2300E+01  0.2260E+02
  -9.110  0.2269E+01  0.2262E+02
  -9.100  0.2243E+01  0.2264E+02
  -9.090  0.2220E+01  0.2267E+02
  -9.080  0.2201E+01  0.2269E+02
  -9.070  0.2187E+01  0.2271E+02
  -9.060  0.2177E+01  0.2273E+02
  -9.050  0.2172E+01  0.2275E+02
  -9.040  0.2172E+01  0.2278E+02
  -9.030  0.2177E+01  0.2280E+02
  -9.020  0.2187E+01  0.2282E+02
  -9.010  0.2202E+01  0.2284E+02
  -9.000  0.2222E+01  0.2286E+02
  -8.990  0.2246E+01  0.2289E+02
  -8.980  0.2275E+01  0.2291E+02
  -8.970  0.2309E+01  0.2293E+02
  -8.960  0.2346E+01  0.2296E+02
  -8.950  0.2388E+01  0.2298E+02
  -8.940  0.2434E+01  0.2300E+02
  -8.930  0.2483E+01  0.2303E+02
  -8.920  0.2534E+01  0.2305E+02
  -8.910  0.2589E+01  0.2308E+02
  -8.900  0.2646E+01  0.2311E+02
  -8.890  0.2704E+01  0.2313E+02
  -8.880  0.2764E+01  0.2316E+02
  -8.870  0.2825E+01  0.2319E+02
  -8.860  0.2887E+01  0.2322E+02
  -8.850  0.2949E+01  0.2325E+02
  -8.840  0.3010E+01  0.2328E+02
  -8.830  0.3071E+01  0.2331E+02
  -8.820  0.3131E+01  0.2334E+02
  -8.810  0.3189E+01  0.2337E+02
  -8.800  0.3245E+01  0.2340E+02
  -8.790  0.3300E+01  0.2344E+02
  -8.780  0.3352E+01  0.2347E+02
  -8.770  0.3402E+01  0.2350E+02
  -8.760  0.3450E+01  0.2354E+02
  -8.750  0.3494E+01  0.2357E+02
  -8.740  0.3536E+01  0.2361E+02
  -8.730  0.3575E+01  0.2364E+02
  -8.720  0.3611E+01  0.2368E+02
  -8.710  0.3645E+01  0.2372E+02
  -8.700  0.3676E+01  0.2375E+02
  -8.690  0.3705E+01  0.2379E+02
  -8.680  0.3732E+01  0.2383E+02
  -8.670  0.3757E+01  0.2387E+02
  -8.660  0.3781E+01  0.2390E+02
  -8.650  0.3804E+01  0.2394E+02
  -8.640  0.3826E+01  0.2398E+02
  -8.630  0.3848E+01  0.2402E+02
  -8.620  0.3871E+01  0.2406E+02
  -8.610  0.3894E+01  0.2410E+02
  -8.600  0.3918E+01  0.2414E+02
  -8.590  0.3944E+01  0.2417E+02
  -8.580  0.3972E+01  0.2421E+02
  -8.570  0.4003E+01  0.2425E+02
  -8.560  0.4036E+01  0.2429E+02
  -8.550  0.4072E+01  0.2434E+02
  -8.540  0.4112E+01  0.2438E+02
  -8.530  0.4156E+01  0.2442E+02
  -8.520  0.4203E+01  0.2446E+02
  -8.510  0.4255E+01  0.2450E+02
  -8.500  0.4310E+01  0.2455E+02
  -8.490  0.4370E+01  0.2459E+02
  -8.480  0.4433E+01  0.2463E+02
  -8.470  0.4499E+01  0.2468E+02
  -8.460  0.4569E+01  0.2472E+02
  -8.450  0.4641E+01  0.2477E+02
  -8.440  0.4716E+01  0.2482E+02
  -8.430  0.4793E+01  0.2487E+02
  -8.420  0.4871E+01  0.2491E+02
  -8.410  0.4949E+01  0.2496E+02
  -8.400  0.5027E+01  0.2501E+02
  -8.390  0.5103E+01  0.2507E+02
  -8.380  0.5178E+01  0.2512E+02
  -8.370  0.5249E+01  0.2517E+02
  -8.360  0.5317E+01  0.2522E+02
  -8.350  0.5379E+01  0.2528E+02
  -8.340  0.5436E+01  0.2533E+02
  -8.330  0.5486E+01  0.2539E+02
  -8.320  0.5529E+01  0.2544E+02
  -8.310  0.5563E+01  0.2550E+02
  -8.300  0.5588E+01  0.2555E+02
  -8.290  0.5603E+01  0.2561E+02
  -8.280  0.5608E+01  0.2567E+02
  -8.270  0.5602E+01  0.2572E+02
  -8.260  0.5584E+01  0.2578E+02
  -8.250  0.5555E+01  0.2583E+02
  -8.240  0.5514E+01  0.2589E+02
  -8.230  0.5461E+01  0.2594E+02
  -8.220  0.5396E+01  0.2600E+02
  -8.210  0.5319E+01  0.2605E+02
  -8.200  0.5231E+01  0.2610E+02
  -8.190  0.5132E+01  0.2615E+02
  -8.180  0.5023E+01  0.2620E+02
  -8.170  0.4905E+01  0.2625E+02
  -8.160  0.4777E+01  0.2630E+02
  -8.150  0.4642E+01  0.2635E+02
  -8.140  0.4500E+01  0.2639E+02
  -8.130  0.4352E+01  0.2643E+02
  -8.120  0.4199E+01  0.2648E+02
  -8.110  0.4042E+01  0.2652E+02
  -8.100  0.3883E+01  0.2656E+02
  -8.090  0.3722E+01  0.2659E+02
  -8.080  0.3561E+01  0.2663E+02
  -8.070  0.3401E+01  0.2666E+02
  -8.060  0.3243E+01  0.2670E+02
  -8.050  0.3088E+01  0.2673E+02
  -8.040  0.2937E+01  0.2676E+02
  -8.030  0.2791E+01  0.2678E+02
  -8.020  0.2651E+01  0.2681E+02
  -8.010  0.2517E+01  0.2684E+02
  -8.000  0.2391E+01  0.2686E+02
  -7.990  0.2272E+01  0.2688E+02
  -7.980  0.2162E+01  0.2690E+02
  -7.970  0.2060E+01  0.2692E+02
  -7.960  0.1968E+01  0.2694E+02
  -7.950  0.1884E+01  0.2696E+02
  -7.940  0.1810E+01  0.2698E+02
  -7.930  0.1744E+01  0.2700E+02
  -7.920  0.1688E+01  0.2702E+02
  -7.910  0.1641E+01  0.2703E+02
  -7.900  0.1602E+01  0.2705E+02
  -7.890  0.1572E+01  0.2706E+02
  -7.880  0.1549E+01  0.2708E+02
  -7.870  0.1534E+01  0.2709E+02
  -7.860  0.1526E+01  0.2711E+02
  -7.850  0.1525E+01  0.2712E+02
  -7.840  0.1530E+01  0.2714E+02
  -7.830  0.1540E+01  0.2716E+02
  -7.820  0.1555E+01  0.2717E+02
  -7.810  0.1575E+01  0.2719E+02
  -7.800  0.1599E+01  0.2720E+02
  -7.790  0.1626E+01  0.2722E+02
  -7.780  0.1656E+01  0.2724E+02
  -7.770  0.1688E+01  0.2725E+02
  -7.760  0.1723E+01  0.2727E+02
  -7.750  0.1759E+01  0.2729E+02
  -7.740  0.1796E+01  0.2731E+02
  -7.730  0.1834E+01  0.2732E+02
  -7.720  0.1872E+01  0.2734E+02
  -7.710  0.1911E+01  0.2736E+02
  -7.700  0.1949E+01  0.2738E+02
  -7.690  0.1987E+01  0.2740E+02
  -7.680  0.2024E+01  0.2742E+02
  -7.670  0.2060E+01  0.2744E+02
  -7.660  0.2095E+01  0.2746E+02
  -7.650  0.2129E+01  0.2748E+02
  -7.640  0.2162E+01  0.2751E+02
  -7.630  0.2192E+01  0.2753E+02
  -7.620  0.2222E+01  0.2755E+02
  -7.610  0.2249E+01  0.2757E+02
  -7.600  0.2275E+01  0.2759E+02
  -7.590  0.2299E+01  0.2762E+02
  -7.580  0.2320E+01  0.2764E+02
  -7.570  0.2340E+01  0.2766E+02
  -7.560  0.2358E+01  0.2769E+02
  -7.550  0.2374E+01  0.2771E+02
  -7.540  0.2388E+01  0.2774E+02
  -7.530  0.2400E+01  0.2776E+02
  -7.520  0.2410E+01  0.2778E+02
  -7.510  0.2418E+01  0.2781E+02
  -7.500  0.2425E+01  0.2783E+02
  -7.490  0.2429E+01  0.2786E+02
  -7.480  0.2432E+01  0.2788E+02
  -7.470  0.2433E+01  0.2790E+02
  -7.460  0.2433E+01  0.2793E+02
  -7.450  0.2431E+01  0.2795E+02
  -7.440  0.2428E+01  0.2798E+02
  -7.430  0.2424E+01  0.2800E+02
  -7.420  0.2418E+01  0.2803E+02
  -7.410  0.2412E+01  0.2805E+02
  -7.400  0.2405E+01  0.2807E+02
  -7.390  0.2398E+01  0.2810E+02
  -7.380  0.2390E+01  0.2812E+02
  -7.370  0.2381E+01  0.2815E+02
  -7.360  0.2373E+01  0.2817E+02
  -7.350  0.2365E+01  0.2819E+02
  -7.340  0.2357E+01  0.2822E+02
  -7.330  0.2350E+01  0.2824E+02
  -7.320  0.2343E+01  0.2826E+02
  -7.310  0.2338E+01  0.2829E+02
  -7.300  0.2333E+01  0.2831E+02
  -7.290  0.2330E+01  0.2833E+02
  -7.280  0.2329E+01  0.2836E+02
  -7.270  0.2329E+01  0.2838E+02
  -7.260  0.2332E+01  0.2840E+02
  -7.250  0.2336E+01  0.2843E+02
  -7.240  0.2343E+01  0.2845E+02
  -7.230  0.2352E+01  0.2847E+02
  -7.220  0.2364E+01  0.2850E+02
  -7.210  0.2378E+01  0.2852E+02
  -7.200  0.2395E+01  0.2855E+02
  -7.190  0.2416E+01  0.2857E+02
  -7.180  0.2439E+01  0.2859E+02
  -7.170  0.2465E+01  0.2862E+02
  -7.160  0.2494E+01  0.2864E+02
  -7.150  0.2525E+01  0.2867E+02
  -7.140  0.2560E+01  0.2869E+02
  -7.130  0.2597E+01  0.2872E+02
  -7.120  0.2637E+01  0.2875E+02
  -7.110  0.2679E+01  0.2877E+02
  -7.100  0.2723E+01  0.2880E+02
  -7.090  0.2769E+01  0.2883E+02
  -7.080  0.2817E+01  0.2886E+02
  -7.070  0.2866E+01  0.2889E+02
  -7.060  0.2916E+01  0.2891E+02
  -7.050  0.2966E+01  0.2894E+02
  -7.040  0.3017E+01  0.2897E+02
  -7.030  0.3068E+01  0.2901E+02
  -7.020  0.3118E+01  0.2904E+02
  -7.010  0.3167E+01  0.2907E+02
  -7.000  0.3215E+01  0.2910E+02
  -6.990  0.3260E+01  0.2913E+02
  -6.980  0.3304E+01  0.2917E+02
  -6.970  0.3345E+01  0.2920E+02
  -6.960  0.3383E+01  0.2923E+02
  -6.950  0.3418E+01  0.2927E+02
  -6.940  0.3449E+01  0.2930E+02
  -6.930  0.3477E+01  0.2934E+02
  -6.920  0.3500E+01  0.2937E+02
  -6.910  0.3519E+01  0.2941E+02
  -6.900  0.3533E+01  0.2944E+02
  -6.890  0.3543E+01  0.2948E+02
  -6.880  0.3548E+01  0.2951E+02
  -6.870  0.3548E+01  0.2955E+02
  -6.860  0.3544E+01  0.2958E+02
  -6.850  0.3535E+01  0.2962E+02
  -6.840  0.3522E+01  0.2965E+02
  -6.830  0.3505E+01  0.2969E+02
  -6.820  0.3483E+01  0.2972E+02
  -6.810  0.3459E+01  0.2976E+02
  -6.800  0.3431E+01  0.2979E+02
  -6.790  0.3400E+01  0.2983E+02
  -6.780  0.3367E+01  0.2986E+02
  -6.770  0.3332E+01  0.2989E+02
  -6.760  0.3295E+01  0.2993E+02
  -6.750  0.3258E+01  0.2996E+02
  -6.740  0.3221E+01  0.2999E+02
  -6.730  0.3183E+01  0.3002E+02
  -6.720  0.3147E+01  0.3006E+02
  -6.710  0.3112E+01  0.3009E+02
  -6.700  0.3080E+01  0.3012E+02
  -6.690  0.3049E+01  0.3015E+02
  -6.680  0.3022E+01  0.3018E+02
  -6.670  0.2999E+01  0.3021E+02
  -6.660  0.2980E+01  0.3024E+02
  -6.650  0.2966E+01  0.3027E+02
  -6.640  0.2957E+01  0.3030E+02
  -6.630  0.2954E+01  0.3033E+02
  -6.620  0.2957E+01  0.3036E+02
  -6.610  0.2966E+01  0.3039E+02
  -6.600  0.2982E+01  0.3042E+02
  -6.590  0.3005E+01  0.3045E+02
  -6.580  0.3035E+01  0.3048E+02
  -6.570  0.3072E+01  0.3051E+02
  -6.560  0.3116E+01  0.3054E+02
  -6.550  0.3167E+01  0.3057E+02
  -6.540  0.3225E+01  0.3060E+02
  -6.530  0.3291E+01  0.3063E+02
  -6.520  0.3363E+01  0.3067E+02
  -6.510  0.3441E+01  0.3070E+02
  -6.500  0.3525E+01  0.3074E+02
  -6.490  0.3615E+01  0.3077E+02
  -6.480  0.3711E+01  0.3081E+02
  -6.470  0.3811E+01  0.3085E+02
  -6.460  0.3915E+01  0.3089E+02
  -6.450  0.4022E+01  0.3093E+02
  -6.440  0.4132E+01  0.3097E+02
  -6.430  0.4245E+01  0.3101E+02
  -6.420  0.4358E+01  0.3106E+02
  -6.410  0.4473E+01  0.3110E+02
  -6.400  0.4587E+01  0.3115E+02
  -6.390  0.4700E+01  0.3119E+02
  -6.380  0.4812E+01  0.3124E+02
  -6.370  0.4920E+01  0.3129E+02
  -6.360  0.5026E+01  0.3134E+02
  -6.350  0.5128E+01  0.3139E+02
  -6.340  0.5225E+01  0.3144E+02
  -6.330  0.5317E+01  0.3150E+02
  -6.320  0.5402E+01  0.3155E+02
  -6.310  0.5481E+01  0.3161E+02
  -6.300  0.5554E+01  0.3166E+02
  -6.290  0.5618E+01  0.3172E+02
  -6.280  0.5675E+01  0.3178E+02
  -6.270  0.5724E+01  0.3183E+02
  -6.260  0.5765E+01  0.3189E+02
  -6.250  0.5798E+01  0.3195E+02
  -6.240  0.5822E+01  0.3201E+02
  -6.230  0.5839E+01  0.3206E+02
  -6.220  0.5847E+01  0.3212E+02
  -6.210  0.5848E+01  0.3218E+02
  -6.200  0.5841E+01  0.3224E+02
  -6.190  0.5828E+01  0.3230E+02
  -6.180  0.5809E+01  0.3236E+02
  -6.170  0.5784E+01  0.3241E+02
  -6.160  0.5754E+01  0.3247E+02
  -6.150  0.5720E+01  0.3253E+02
  -6.140  0.5682E+01  0.3259E+02
  -6.130  0.5642E+01  0.3264E+02
  -6.120  0.5601E+01  0.3270E+02
  -6.110  0.5558E+01  0.3275E+02
  -6.100  0.5516E+01  0.3281E+02
  -6.090  0.5474E+01  0.3286E+02
  -6.080  0.5435E+01  0.3292E+02
  -6.070  0.5398E+01  0.3297E+02
  -6.060  0.5364E+01  0.3303E+02
  -6.050  0.5334E+01  0.3308E+02
  -6.040  0.5309E+01  0.3313E+02
  -6.030  0.5289E+01  0.3318E+02
  -6.020  0.5276E+01  0.3324E+02
  -6.010  0.5268E+01  0.3329E+02
  -6.000  0.5267E+01  0.3334E+02
  -5.990  0.5273E+01  0.3340E+02
  -5.980  0.5286E+01  0.3345E+02
  -5.970  0.5306E+01  0.3350E+02
  -5.960  0.5334E+01  0.3356E+02
  -5.950  0.5368E+01  0.3361E+02
  -5.940  0.5409E+01  0.3366E+02
  -5.930  0.5457E+01  0.3372E+02
  -5.920  0.5511E+01  0.3377E+02
  -5.910  0.5571E+01  0.3383E+02
  -5.900  0.5637E+01  0.3388E+02
  -5.890  0.5707E+01  0.3394E+02
  -5.880  0.5781E+01  0.3400E+02
  -5.870  0.5859E+01  0.3406E+02
  -5.860  0.5941E+01  0.3412E+02
  -5.850  0.6024E+01  0.3418E+02
  -5.840  0.6109E+01  0.3424E+02
  -5.830  0.6194E+01  0.3430E+02
  -5.820  0.6280E+01  0.3436E+02
  -5.810  0.6365E+01  0.3443E+02
  -5.800  0.6449E+01  0.3449E+02
  -5.790  0.6531E+01  0.3456E+02
  -5.780  0.6609E+01  0.3462E+02
  -5.770  0.6685E+01  0.3469E+02
  -5.760  0.6756E+01  0.3476E+02
  -5.750  0.6823E+01  0.3483E+02
  -5.740  0.6884E+01  0.3489E+02
  -5.730  0.6940E+01  0.3496E+02
  -5.720  0.6989E+01  0.3503E+02
  -5.710  0.7032E+01  0.3510E+02
  -5.700  0.7068E+01  0.3517E+02
  -5.690  0.7096E+01  0.3525E+02
  -5.680  0.7117E+01  0.3532E+02
  -5.670  0.7129E+01  0.3539E+02
  -5.660  0.7134E+01  0.3546E+02
  -5.650  0.7130E+01  0.3553E+02
  -5.640  0.7118E+01  0.3560E+02
  -5.630  0.7098E+01  0.3567E+02
  -5.620  0.7070E+01  0.3574E+02
  -5.610  0.7033E+01  0.3581E+02
  -5.600  0.6988E+01  0.3588E+02
  -5.590  0.6936E+01  0.3595E+02
  -5.580  0.6876E+01  0.3602E+02
  -5.570  0.6808E+01  0.3609E+02
  -5.560  0.6733E+01  0.3616E+02
  -5.550  0.6651E+01  0.3622E+02
  -5.540  0.6564E+01  0.3629E+02
  -5.530  0.6470E+01  0.3635E+02
  -5.520  0.6370E+01  0.3642E+02
  -5.510  0.6266E+01  0.3648E+02
  -5.500  0.6156E+01  0.3654E+02
  -5.490  0.6043E+01  0.3660E+02
  -5.480  0.5926E+01  0.3666E+02
  -5.470  0.5806E+01  0.3672E+02
  -5.460  0.5683E+01  0.3678E+02
  -5.450  0.5558E+01  0.3683E+02
  -5.440  0.5431E+01  0.3689E+02
  -5.430  0.5303E+01  0.3694E+02
  -5.420  0.5175E+01  0.3699E+02
  -5.410  0.5046E+01  0.3704E+02
  -5.400  0.4917E+01  0.3709E+02
  -5.390  0.4789E+01  0.3714E+02
  -5.380  0.4661E+01  0.3719E+02
  -5.370  0.4535E+01  0.3723E+02
  -5.360  0.4411E+01  0.3728E+02
  -5.350  0.4288E+01  0.3732E+02
  -5.340  0.4167E+01  0.3736E+02
  -5.330  0.4049E+01  0.3740E+02
  -5.320  0.3933E+01  0.3744E+02
  -5.310  0.3820E+01  0.3748E+02
  -5.300  0.3711E+01  0.3751E+02
  -5.290  0.3604E+01  0.3755E+02
  -5.280  0.3501E+01  0.3759E+02
  -5.270  0.3402E+01  0.3762E+02
  -5.260  0.3306E+01  0.3765E+02
  -5.250  0.3214E+01  0.3769E+02
  -5.240  0.3127E+01  0.3772E+02
  -5.230  0.3043E+01  0.3775E+02
  -5.220  0.2965E+01  0.3778E+02
  -5.210  0.2891E+01  0.3781E+02
  -5.200  0.2822E+01  0.3783E+02
  -5.190  0.2758E+01  0.3786E+02
  -5.180  0.2700E+01  0.3789E+02
  -5.170  0.2648E+01  0.3791E+02
  -5.160  0.2602E+01  0.3794E+02
  -5.150  0.2562E+01  0.3797E+02
  -5.140  0.2528E+01  0.3799E+02
  -5.130  0.2502E+01  0.3802E+02
  -5.120  0.2484E+01  0.3804E+02
  -5.110  0.2472E+01  0.3807E+02
  -5.100  0.2469E+01  0.3809E+02
  -5.090  0.2475E+01  0.3812E+02
  -5.080  0.2488E+01  0.3814E+02
  -5.070  0.2511E+01  0.3817E+02
  -5.060  0.2543E+01  0.3819E+02
  -5.050  0.2584E+01  0.3822E+02
  -5.040  0.2635E+01  0.3824E+02
  -5.030  0.2695E+01  0.3827E+02
  -5.020  0.2765E+01  0.3830E+02
  -5.010  0.2845E+01  0.3833E+02
  -5.000  0.2935E+01  0.3836E+02
  -4.990  0.3034E+01  0.3839E+02
  -4.980  0.3142E+01  0.3842E+02
  -4.970  0.3260E+01  0.3845E+02
  -4.960  0.3386E+01  0.3848E+02
  -4.950  0.3521E+01  0.3852E+02
  -4.940  0.3665E+01  0.3856E+02
  -4.930  0.3815E+01  0.3859E+02
  -4.920  0.3973E+01  0.3863E+02
  -4.910  0.4136E+01  0.3867E+02
  -4.900  0.4306E+01  0.3872E+02
  -4.890  0.4479E+01  0.3876E+02
  -4.880  0.4657E+01  0.3881E+02
  -4.870  0.4838E+01  0.3886E+02
  -4.860  0.5020E+01  0.3891E+02
  -4.850  0.5204E+01  0.3896E+02
  -4.840  0.5387E+01  0.3901E+02
  -4.830  0.5569E+01  0.3907E+02
  -4.820  0.5749E+01  0.3913E+02
  -4.810  0.5926E+01  0.3919E+02
  -4.800  0.6098E+01  0.3925E+02
  -4.790  0.6265E+01  0.3931E+02
  -4.780  0.6425E+01  0.3937E+02
  -4.770  0.6577E+01  0.3944E+02
  -4.760  0.6720E+01  0.3951E+02
  -4.750  0.6854E+01  0.3958E+02
  -4.740  0.6977E+01  0.3965E+02
  -4.730  0.7088E+01  0.3972E+02
  -4.720  0.7187E+01  0.3979E+02
  -4.710  0.7273E+01  0.3986E+02
  -4.700  0.7345E+01  0.3993E+02
  -4.690  0.7403E+01  0.4001E+02
  -4.680  0.7446E+01  0.4008E+02
  -4.670  0.7474E+01  0.4016E+02
  -4.660  0.7486E+01  0.4023E+02
  -4.650  0.7482E+01  0.4031E+02
  -4.640  0.7463E+01  0.4038E+02
  -4.630  0.7428E+01  0.4046E+02
  -4.620  0.7377E+01  0.4053E+02
  -4.610  0.7311E+01  0.4060E+02
  -4.600  0.7231E+01  0.4068E+02
  -4.590  0.7136E+01  0.4075E+02
  -4.580  0.7028E+01  0.4082E+02
  -4.570  0.6906E+01  0.4089E+02
  -4.560  0.6773E+01  0.4095E+02
  -4.550  0.6628E+01  0.4102E+02
  -4.540  0.6473E+01  0.4108E+02
  -4.530  0.6310E+01  0.4115E+02
  -4.520  0.6138E+01  0.4121E+02
  -4.510  0.5960E+01  0.4127E+02
  -4.500  0.5776E+01  0.4133E+02
  -4.490  0.5588E+01  0.4138E+02
  -4.480  0.5397E+01  0.4144E+02
  -4.470  0.5205E+01  0.4149E+02
  -4.460  0.5012E+01  0.4154E+02
  -4.450  0.4820E+01  0.4159E+02
  -4.440  0.4630E+01  0.4163E+02
  -4.430  0.4444E+01  0.4168E+02
  -4.420  0.4261E+01  0.4172E+02
  -4.410  0.4084E+01  0.4176E+02
  -4.400  0.3913E+01  0.4180E+02
  -4.390  0.3749E+01  0.4184E+02
  -4.380  0.3593E+01  0.4187E+02
  -4.370  0.3445E+01  0.4191E+02
  -4.360  0.3306E+01  0.4194E+02
  -4.350  0.3176E+01  0.4197E+02
  -4.340  0.3056E+01  0.4200E+02
  -4.330  0.2945E+01  0.4203E+02
  -4.320  0.2843E+01  0.4206E+02
  -4.310  0.2751E+01  0.4209E+02
  -4.300  0.2669E+01  0.4212E+02
  -4.290  0.2595E+01  0.4214E+02
  -4.280  0.2530E+01  0.4217E+02
  -4.270  0.2473E+01  0.4219E+02
  -4.260  0.2423E+01  0.4222E+02
  -4.250  0.2381E+01  0.4224E+02
  -4.240  0.2344E+01  0.4226E+02
  -4.230  0.2314E+01  0.4229E+02
  -4.220  0.2288E+01  0.4231E+02
  -4.210  0.2266E+01  0.4233E+02
  -4.200  0.2248E+01  0.4235E+02
  -4.190  0.2233E+01  0.4238E+02
  -4.180  0.2220E+01  0.4240E+02
  -4.170  0.2208E+01  0.4242E+02
  -4.160  0.2196E+01  0.4244E+02
  -4.150  0.2185E+01  0.4246E+02
  -4.140  0.2174E+01  0.4249E+02
  -4.130  0.2162E+01  0.4251E+02
  -4.120  0.2148E+01  0.4253E+02
  -4.110  0.2133E+01  0.4255E+02
  -4.100  0.2115E+01  0.4257E+02
  -4.090  0.2096E+01  0.4259E+02
  -4.080  0.2074E+01  0.4261E+02
  -4.070  0.2050E+01  0.4263E+02
  -4.060  0.2023E+01  0.4265E+02
  -4.050  0.1994E+01  0.4267E+02
  -4.040  0.1963E+01  0.4269E+02
  -4.030  0.1929E+01  0.4271E+02
  -4.020  0.1893E+01  0.4273E+02
  -4.010  0.1855E+01  0.4275E+02
  -4.000  0.1816E+01  0.4277E+02
  -3.990  0.1775E+01  0.4279E+02
  -3.980  0.1733E+01  0.4280E+02
  -3.970  0.1690E+01  0.4282E+02
  -3.960  0.1646E+01  0.4284E+02
  -3.950  0.1603E+01  0.4285E+02
  -3.940  0.1559E+01  0.4287E+02
  -3.930  0.1515E+01  0.4288E+02
  -3.920  0.1473E+01  0.4290E+02
  -3.910  0.1431E+01  0.4291E+02
  -3.900  0.1390E+01  0.4293E+02
  -3.890  0.1350E+01  0.4294E+02
  -3.880  0.1312E+01  0.4295E+02
  -3.870  0.1275E+01  0.4297E+02
  -3.860  0.1240E+01  0.4298E+02
  -3.850  0.1208E+01  0.4299E+02
  -3.840  0.1177E+01  0.4300E+02
  -3.830  0.1148E+01  0.4301E+02
  -3.820  0.1121E+01  0.4303E+02
  -3.810  0.1097E+01  0.4304E+02
  -3.800  0.1075E+01  0.4305E+02
  -3.790  0.1054E+01  0.4306E+02
  -3.780  0.1036E+01  0.4307E+02
  -3.770  0.1020E+01  0.4308E+02
  -3.760  0.1007E+01  0.4309E+02
  -3.750  0.9946E+00  0.4310E+02
  -3.740  0.9844E+00  0.4311E+02
  -3.730  0.9761E+00  0.4312E+02
  -3.720  0.9694E+00  0.4313E+02
  -3.710  0.9643E+00  0.4314E+02
  -3.700  0.9606E+00  0.4315E+02
  -3.690  0.9583E+00  0.4316E+02
  -3.680  0.9572E+00  0.4317E+02
  -3.670  0.9572E+00  0.4318E+02
  -3.660  0.9582E+00  0.4318E+02
  -3.650  0.9600E+00  0.4319E+02
  -3.640  0.9626E+00  0.4320E+02
  -3.630  0.9659E+00  0.4321E+02
  -3.620  0.9696E+00  0.4322E+02
  -3.610  0.9737E+00  0.4323E+02
  -3.600  0.9781E+00  0.4324E+02
  -3.590  0.9827E+00  0.4325E+02
  -3.580  0.9873E+00  0.4326E+02
  -3.570  0.9918E+00  0.4327E+02
  -3.560  0.9961E+00  0.4328E+02
  -3.550  0.1000E+01  0.4329E+02
  -3.540  0.1004E+01  0.4330E+02
  -3.530  0.1007E+01  0.4331E+02
  -3.520  0.1010E+01  0.4332E+02
  -3.510  0.1012E+01  0.4333E+02
  -3.500  0.1013E+01  0.4334E+02
  -3.490  0.1013E+01  0.4335E+02
  -3.480  0.1013E+01  0.4336E+02
  -3.470  0.1011E+01  0.4337E+02
  -3.460  0.1009E+01  0.4338E+02
  -3.450  0.1005E+01  0.4339E+02
  -3.440  0.1001E+01  0.4340E+02
  -3.430  0.9949E+00  0.4341E+02
  -3.420  0.9881E+00  0.4342E+02
  -3.410  0.9803E+00  0.4343E+02
  -3.400  0.9713E+00  0.4344E+02
  -3.390  0.9612E+00  0.4345E+02
  -3.380  0.9501E+00  0.4346E+02
  -3.370  0.9380E+00  0.4347E+02
  -3.360  0.9250E+00  0.4348E+02
  -3.350  0.9111E+00  0.4349E+02
  -3.340  0.8964E+00  0.4350E+02
  -3.330  0.8809E+00  0.4351E+02
  -3.320  0.8648E+00  0.4352E+02
  -3.310  0.8482E+00  0.4352E+02
  -3.300  0.8311E+00  0.4353E+02
  -3.290  0.8137E+00  0.4354E+02
  -3.280  0.7962E+00  0.4355E+02
  -3.270  0.7785E+00  0.4356E+02
  -3.260  0.7608E+00  0.4356E+02
  -3.250  0.7433E+00  0.4357E+02
  -3.240  0.7261E+00  0.4358E+02
  -3.230  0.7093E+00  0.4359E+02
  -3.220  0.6929E+00  0.4359E+02
  -3.210  0.6772E+00  0.4360E+02
  -3.200  0.6621E+00  0.4361E+02
  -3.190  0.6479E+00  0.4361E+02
  -3.180  0.6345E+00  0.4362E+02
  -3.170  0.6221E+00  0.4363E+02
  -3.160  0.6107E+00  0.4363E+02
  -3.150  0.6004E+00  0.4364E+02
  -3.140  0.5912E+00  0.4364E+02
  -3.130  0.5833E+00  0.4365E+02
  -3.120  0.5765E+00  0.4366E+02
  -3.110  0.5709E+00  0.4366E+02
  -3.100  0.5666E+00  0.4367E+02
  -3.090  0.5635E+00  0.4367E+02
  -3.080  0.5616E+00  0.4368E+02
  -3.070  0.5610E+00  0.4368E+02
  -3.060  0.5614E+00  0.4369E+02
  -3.050  0.5630E+00  0.4369E+02
  -3.040  0.5657E+00  0.4370E+02
  -3.030  0.5694E+00  0.4371E+02
  -3.020  0.5740E+00  0.4371E+02
  -3.010  0.5795E+00  0.4372E+02
  -3.000  0.5858E+00  0.4372E+02
  -2.990  0.5928E+00  0.4373E+02
  -2.980  0.6005E+00  0.4374E+02
  -2.970  0.6087E+00  0.4374E+02
  -2.960  0.6174E+00  0.4375E+02
  -2.950  0.6264E+00  0.4375E+02
  -2.940  0.6356E+00  0.4376E+02
  -2.930  0.6450E+00  0.4377E+02
  -2.920  0.6544E+00  0.4377E+02
  -2.910  0.6638E+00  0.4378E+02
  -2.900  0.6730E+00  0.4379E+02
  -2.890  0.6818E+00  0.4379E+02
  -2.880  0.6903E+00  0.4380E+02
  -2.870  0.6983E+00  0.4381E+02
  -2.860  0.7056E+00  0.4381E+02
  -2.850  0.7122E+00  0.4382E+02
  -2.840  0.7180E+00  0.4383E+02
  -2.830  0.7229E+00  0.4384E+02
  -2.820  0.7267E+00  0.4384E+02
  -2.810  0.7294E+00  0.4385E+02
  -2.800  0.7308E+00  0.4386E+02
  -2.790  0.7310E+00  0.4387E+02
  -2.780  0.7298E+00  0.4387E+02
  -2.770  0.7272E+00  0.4388E+02
  -2.760  0.7231E+00  0.4389E+02
  -2.750  0.7174E+00  0.4389E+02
  -2.740  0.7102E+00  0.4390E+02
  -2.730  0.7014E+00  0.4391E+02
  -2.720  0.6909E+00  0.4392E+02
  -2.710  0.6789E+00  0.4392E+02
  -2.700  0.6652E+00  0.4393E+02
  -2.690  0.6500E+00  0.4394E+02
  -2.680  0.6332E+00  0.4394E+02
  -2.670  0.6150E+00  0.4395E+02
  -2.660  0.5953E+00  0.4395E+02
  -2.650  0.5743E+00  0.4396E+02
  -2.640  0.5521E+00  0.4396E+02
  -2.630  0.5287E+00  0.4397E+02
  -2.620  0.5043E+00  0.4398E+02
  -2.610  0.4790E+00  0.4398E+02
  -2.600  0.4530E+00  0.4398E+02
  -2.590  0.4263E+00  0.4399E+02
  -2.580  0.3991E+00  0.4399E+02
  -2.570  0.3716E+00  0.4400E+02
  -2.560  0.3440E+00  0.4400E+02
  -2.550  0.3163E+00  0.4400E+02
  -2.540  0.2887E+00  0.4401E+02
  -2.530  0.2614E+00  0.4401E+02
  -2.520  0.2345E+00  0.4401E+02
  -2.510  0.2082E+00  0.4401E+02
  -2.500  0.1825E+00  0.4401E+02
  -2.490  0.1577E+00  0.4402E+02
  -2.480  0.1338E+00  0.4402E+02
  -2.470  0.1109E+00  0.4402E+02
  -2.460  0.8918E-01  0.4402E+02
  -2.450  0.6862E-01  0.4402E+02
  -2.440  0.4933E-01  0.4402E+02
  -2.430  0.3135E-01  0.4402E+02
  -2.420  0.1471E-01  0.4402E+02
  -2.410 -0.5437E-03  0.4402E+02
  -2.400 -0.1442E-01  0.4402E+02
  -2.390 -0.2690E-01  0.4402E+02
  -2.380 -0.3802E-01  0.4402E+02
  -2.370 -0.4779E-01  0.4402E+02
  -2.360 -0.5626E-01  0.4402E+02
  -2.350 -0.6345E-01  0.4402E+02
  -2.340 -0.6944E-01  0.4402E+02
  -2.330 -0.7427E-01  0.4402E+02
  -2.320 -0.7801E-01  0.4402E+02
  -2.310 -0.8075E-01  0.4402E+02
  -2.300 -0.8254E-01  0.4401E+02
  -2.290 -0.8348E-01  0.4401E+02
  -2.280 -0.8364E-01  0.4401E+02
  -2.270 -0.8309E-01  0.4401E+02
  -2.260 -0.8193E-01  0.4401E+02
  -2.250 -0.8022E-01  0.4401E+02
  -2.240 -0.7805E-01  0.4401E+02
  -2.230 -0.7549E-01  0.4401E+02
  -2.220 -0.7260E-01  0.4401E+02
  -2.210 -0.6945E-01  0.4401E+02
  -2.200 -0.6611E-01  0.4401E+02
  -2.190 -0.6262E-01  0.4401E+02
  -2.180 -0.5905E-01  0.4401E+02
  -2.170 -0.5544E-01  0.4401E+02
  -2.160 -0.5182E-01  0.4400E+02
  -2.150 -0.4824E-01  0.4400E+02
  -2.140 -0.4473E-01  0.4400E+02
  -2.130 -0.4130E-01  0.4400E+02
  -2.120 -0.3800E-01  0.4400E+02
  -2.110 -0.3483E-01  0.4400E+02
  -2.100 -0.3180E-01  0.4400E+02
  -2.090 -0.2893E-01  0.4400E+02
  -2.080 -0.2623E-01  0.4400E+02
  -2.070 -0.2370E-01  0.4400E+02
  -2.060 -0.2134E-01  0.4400E+02
  -2.050 -0.1915E-01  0.4400E+02
  -2.040 -0.1712E-01  0.4400E+02
  -2.030 -0.1526E-01  0.4400E+02
  -2.020 -0.1356E-01  0.4400E+02
  -2.010 -0.1200E-01  0.4400E+02
  -2.000 -0.1059E-01  0.4400E+02
  -1.990 -0.9321E-02  0.4400E+02
  -1.980 -0.8175E-02  0.4400E+02
  -1.970 -0.7147E-02  0.4400E+02
  -1.960 -0.6229E-02  0.4400E+02
  -1.950 -0.5411E-02  0.4400E+02
  -1.940 -0.4687E-02  0.4400E+02
  -1.930 -0.4047E-02  0.4400E+02
  -1.920 -0.3484E-02  0.4400E+02
  -1.910 -0.2990E-02  0.4400E+02
  -1.900 -0.2558E-02  0.4400E+02
  -1.890 -0.2182E-02  0.4400E+02
  -1.880 -0.1856E-02  0.4400E+02
  -1.870 -0.1574E-02  0.4400E+02
  -1.860 -0.1331E-02  0.4400E+02
  -1.850 -0.1122E-02  0.4400E+02
  -1.840 -0.9429E-03  0.4400E+02
  -1.830 -0.7901E-03  0.4400E+02
  -1.820 -0.6602E-03  0.4400E+02
  -1.810 -0.5500E-03  0.4400E+02
  -1.800 -0.4569E-03  0.4400E+02
  -1.790 -0.3784E-03  0.4400E+02
  -1.780 -0.3125E-03  0.4400E+02
  -1.770 -0.2574E-03  0.4400E+02
  -1.760 -0.2113E-03  0.4400E+02
  -1.750 -0.1730E-03  0.4400E+02
  -1.740 -0.1412E-03  0.4400E+02
  -1.730 -0.1150E-03  0.4400E+02
  -1.720 -0.9333E-04  0.4400E+02
  -1.710 -0.7555E-04  0.4400E+02
  -1.700 -0.6097E-04  0.4400E+02
  -1.690 -0.4907E-04  0.4400E+02
  -1.680 -0.3938E-04  0.4400E+02
  -1.670 -0.3151E-04  0.4400E+02
  -1.660 -0.2515E-04  0.4400E+02
  -1.650 -0.2001E-04  0.4400E+02
  -1.640 -0.1588E-04  0.4400E+02
  -1.630 -0.1256E-04  0.4400E+02
  -1.620 -0.9912E-05  0.4400E+02
  -1.610 -0.7798E-05  0.4400E+02
  -1.600 -0.6118E-05  0.4400E+02
  -1.590 -0.4787E-05  0.4400E+02
  -1.580 -0.3734E-05  0.4400E+02
  -1.570 -0.2905E-05  0.4400E+02
  -1.560 -0.2254E-05  0.4400E+02
  -1.550 -0.1744E-05  0.4400E+02
  -1.540 -0.1345E-05  0.4400E+02
  -1.530 -0.1035E-05  0.4400E+02
  -1.520 -0.7940E-06  0.4400E+02
  -1.510 -0.6074E-06  0.4400E+02
  -1.500 -0.4634E-06  0.4400E+02
  -1.490 -0.3526E-06  0.4400E+02
  -1.480 -0.2675E-06  0.4400E+02
  -1.470 -0.2024E-06  0.4400E+02
  -1.460 -0.1527E-06  0.4400E+02
  -1.450 -0.1149E-06  0.4400E+02
  -1.440 -0.8618E-07  0.4400E+02
  -1.430 -0.6448E-07  0.4400E+02
  -1.420 -0.4811E-07  0.4400E+02
  -1.410 -0.3580E-07  0.4400E+02
  -1.400 -0.2656E-07  0.4400E+02
  -1.390 -0.1965E-07  0.4400E+02
  -1.380 -0.1450E-07  0.4400E+02
  -1.370 -0.1067E-07  0.4400E+02
  -1.360 -0.7831E-08  0.4400E+02
  -1.350 -0.5731E-08  0.4400E+02
  -1.340 -0.4182E-08  0.4400E+02
  -1.330 -0.3044E-08  0.4400E+02
  -1.320 -0.2209E-08  0.4400E+02
  -1.310 -0.1599E-08  0.4400E+02
  -1.300 -0.1154E-08  0.4400E+02
  -1.290 -0.8307E-09  0.4400E+02
  -1.280 -0.5963E-09  0.4400E+02
  -1.270 -0.4269E-09  0.4400E+02
  -1.260 -0.3047E-09  0.4400E+02
  -1.250 -0.2169E-09  0.4400E+02
  -1.240 -0.1540E-09  0.4400E+02
  -1.230 -0.1090E-09  0.4400E+02
  -1.220 -0.7699E-10  0.4400E+02
  -1.210 -0.5421E-10  0.4400E+02
  -1.200 -0.3807E-10  0.4400E+02
  -1.190 -0.2666E-10  0.4400E+02
  -1.180 -0.1861E-10  0.4400E+02
  -1.170 -0.1296E-10  0.4400E+02
  -1.160 -0.9004E-11  0.4400E+02
  -1.150 -0.6236E-11  0.4400E+02
  -1.140 -0.4307E-11  0.4400E+02
  -1.130 -0.2967E-11  0.4400E+02
  -1.120 -0.2038E-11  0.4400E+02
  -1.110 -0.1396E-11  0.4400E+02
  -1.100 -0.9540E-12  0.4400E+02
  -1.090 -0.6499E-12  0.4400E+02
  -1.080 -0.4416E-12  0.4400E+02
  -1.070 -0.2992E-12  0.4400E+02
  -1.060 -0.2022E-12  0.4400E+02
  -1.050 -0.1363E-12  0.4400E+02
  -1.040 -0.9158E-13  0.4400E+02
  -1.030 -0.6138E-13  0.4400E+02
  -1.020 -0.4103E-13  0.4400E+02
  -1.010 -0.2735E-13  0.4400E+02
  -1.000 -0.1818E-13  0.4400E+02
  -0.990 -0.1205E-13  0.4400E+02
  -0.980 -0.7967E-14  0.4400E+02
  -0.970 -0.5253E-14  0.4400E+02
  -0.960 -0.3454E-14  0.4400E+02
  -0.950 -0.2265E-14  0.4400E+02
  -0.940 -0.1481E-14  0.4400E+02
  -0.930 -0.9659E-15  0.4400E+02
  -0.920 -0.6282E-15  0.4400E+02
  -0.910 -0.4074E-15  0.4400E+02
  -0.900 -0.2635E-15  0.4400E+02
  -0.890 -0.1700E-15  0.4400E+02
  -0.880 -0.1094E-15  0.4400E+02
  -0.870 -0.7016E-16  0.4400E+02
  -0.860 -0.4489E-16  0.4400E+02
  -0.850 -0.2864E-16  0.4400E+02
  -0.840 -0.1822E-16  0.4400E+02
  -0.830 -0.1155E-16  0.4400E+02
  -0.820 -0.7292E-17  0.4400E+02
  -0.810 -0.4573E-17  0.4400E+02
  -0.800 -0.2832E-17  0.4400E+02
  -0.790 -0.1701E-17  0.4400E+02
  -0.780 -0.9415E-18  0.4400E+02
  -0.770 -0.3880E-18  0.4400E+02
  -0.760  0.8050E-19  0.4400E+02
  -0.750  0.5678E-18  0.4400E+02
  -0.740  0.1182E-17  0.4400E+02
  -0.730  0.2058E-17  0.4400E+02
  -0.720  0.3385E-17  0.4400E+02
  -0.710  0.5447E-17  0.4400E+02
  -0.700  0.8678E-17  0.4400E+02
  -0.690  0.1375E-16  0.4400E+02
  -0.680  0.2171E-16  0.4400E+02
  -0.670  0.3416E-16  0.4400E+02
  -0.660  0.5361E-16  0.4400E+02
  -0.650  0.8389E-16  0.4400E+02
  -0.640  0.1309E-15  0.4400E+02
  -0.630  0.2037E-15  0.4400E+02
  -0.620  0.3162E-15  0.4400E+02
  -0.610  0.4895E-15  0.4400E+02
  -0.600  0.7557E-15  0.4400E+02
  -0.590  0.1163E-14  0.4400E+02
  -0.580  0.1786E-14  0.4400E+02
  -0.570  0.2735E-14  0.4400E+02
  -0.560  0.4177E-14  0.4400E+02
  -0.550  0.6361E-14  0.4400E+02
  -0.540  0.9661E-14  0.4400E+02
  -0.530  0.1463E-13  0.4400E+02
  -0.520  0.2210E-13  0.4400E+02
  -0.510  0.3330E-13  0.4400E+02
  -0.500  0.5003E-13  0.4400E+02
  -0.490  0.7496E-13  0.4400E+02
  -0.480  0.1120E-12  0.4400E+02
  -0.470  0.1669E-12  0.4400E+02
  -0.460  0.2481E-12  0.4400E+02
  -0.450  0.3677E-12  0.4400E+02
  -0.440  0.5435E-12  0.4400E+02
  -0.430  0.8012E-12  0.4400E+02
  -0.420  0.1178E-11  0.4400E+02
  -0.410  0.1727E-11  0.4400E+02
  -0.400  0.2525E-11  0.4400E+02
  -0.390  0.3682E-11  0.4400E+02
  -0.380  0.5355E-11  0.4400E+02
  -0.370  0.7767E-11  0.4400E+02
  -0.360  0.1123E-10  0.4400E+02
  -0.350  0.1620E-10  0.4400E+02
  -0.340  0.2331E-10  0.4400E+02
  -0.330  0.3344E-10  0.4400E+02
  -0.320  0.4785E-10  0.4400E+02
  -0.310  0.6828E-10  0.4400E+02
  -0.300  0.9716E-10  0.4400E+02
  -0.290  0.1379E-09  0.4400E+02
  -0.280  0.1951E-09  0.4400E+02
  -0.270  0.2754E-09  0.4400E+02
  -0.260  0.3877E-09  0.4400E+02
  -0.250  0.5443E-09  0.4400E+02
  -0.240  0.7621E-09  0.4400E+02
  -0.230  0.1064E-08  0.4400E+02
  -0.220  0.1482E-08  0.4400E+02
  -0.210  0.2057E-08  0.4400E+02
  -0.200  0.2849E-08  0.4400E+02
  -0.190  0.3935E-08  0.4400E+02
  -0.180  0.5420E-08  0.4400E+02
  -0.170  0.7446E-08  0.4400E+02
  -0.160  0.1020E-07  0.4400E+02
  -0.150  0.1394E-07  0.4400E+02
  -0.140  0.1899E-07  0.4400E+02
  -0.130  0.2580E-07  0.4400E+02
  -0.120  0.3496E-07  0.4400E+02
  -0.110  0.4725E-07  0.4400E+02
  -0.100  0.6368E-07  0.4400E+02
  -0.090  0.8559E-07  0.4400E+02
  -0.080  0.1147E-06  0.4400E+02
  -0.070  0.1534E-06  0.4400E+02
  -0.060  0.2045E-06  0.4400E+02
  -0.050  0.2719E-06  0.4400E+02
  -0.040  0.3605E-06  0.4400E+02
  -0.030  0.4767E-06  0.4400E+02
  -0.020  0.6286E-06  0.4400E+02
  -0.010  0.8267E-06  0.4400E+02
   0.000  0.1084E-05  0.4400E+02
   0.010  0.1418E-05  0.4400E+02
   0.020  0.1850E-05  0.4400E+02
   0.030  0.2407E-05  0.4400E+02
   0.040  0.3123E-05  0.4400E+02
   0.050  0.4041E-05  0.4400E+02
   0.060  0.5214E-05  0.4400E+02
   0.070  0.6710E-05  0.4400E+02
   0.080  0.8611E-05  0.4400E+02
   0.090  0.1102E-04  0.4400E+02
   0.100  0.1407E-04  0.4400E+02
   0.110  0.1791E-04  0.4400E+02
   0.120  0.2273E-04  0.4400E+02
   0.130  0.2878E-04  0.4400E+02
   0.140  0.3634E-04  0.4400E+02
   0.150  0.4575E-04  0.4400E+02
   0.160  0.5745E-04  0.4400E+02
   0.170  0.7195E-04  0.4400E+02
   0.180  0.8986E-04  0.4400E+02
   0.190  0.1119E-03  0.4400E+02
   0.200  0.1390E-03  0.4400E+02
   0.210  0.1722E-03  0.4400E+02
   0.220  0.2127E-03  0.4400E+02
   0.230  0.2621E-03  0.4400E+02
   0.240  0.3220E-03  0.4400E+02
   0.250  0.3946E-03  0.4400E+02
   0.260  0.4822E-03  0.4400E+02
   0.270  0.5876E-03  0.4400E+02
   0.280  0.7141E-03  0.4400E+02
   0.290  0.8655E-03  0.4400E+02
   0.300  0.1046E-02  0.4400E+02
   0.310  0.1261E-02  0.4400E+02
   0.320  0.1516E-02  0.4400E+02
   0.330  0.1818E-02  0.4400E+02
   0.340  0.2173E-02  0.4400E+02
   0.350  0.2591E-02  0.4400E+02
   0.360  0.3081E-02  0.4400E+02
   0.370  0.3654E-02  0.4400E+02
   0.380  0.4322E-02  0.4400E+02
   0.390  0.5097E-02  0.4400E+02
   0.400  0.5995E-02  0.4400E+02
   0.410  0.7033E-02  0.4400E+02
   0.420  0.8227E-02  0.4400E+02
   0.430  0.9599E-02  0.4400E+02
   0.440  0.1117E-01  0.4400E+02
   0.450  0.1296E-01  0.4400E+02
   0.460  0.1500E-01  0.4400E+02
   0.470  0.1730E-01  0.4400E+02
   0.480  0.1992E-01  0.4400E+02
   0.490  0.2286E-01  0.4400E+02
   0.500  0.2616E-01  0.4400E+02
   0.510  0.2987E-01  0.4400E+02
   0.520  0.3400E-01  0.4400E+02
   0.530  0.3860E-01  0.4400E+02
   0.540  0.4371E-01  0.4400E+02
   0.550  0.4935E-01  0.4400E+02
   0.560  0.5558E-01  0.4400E+02
   0.570  0.6241E-01  0.4401E+02
   0.580  0.6990E-01  0.4401E+02
   0.590  0.7808E-01  0.4401E+02
   0.600  0.8697E-01  0.4401E+02
   0.610  0.9662E-01  0.4401E+02
   0.620  0.1070E+00  0.4401E+02
   0.630  0.1183E+00  0.4401E+02
   0.640  0.1303E+00  0.4401E+02
   0.650  0.1432E+00  0.4401E+02
   0.660  0.1570E+00  0.4401E+02
   0.670  0.1716E+00  0.4402E+02
   0.680  0.1870E+00  0.4402E+02
   0.690  0.2033E+00  0.4402E+02
   0.700  0.2204E+00  0.4402E+02
   0.710  0.2384E+00  0.4403E+02
   0.720  0.2571E+00  0.4403E+02
   0.730  0.2765E+00  0.4403E+02
   0.740  0.2965E+00  0.4403E+02
   0.750  0.3172E+00  0.4404E+02
   0.760  0.3385E+00  0.4404E+02
   0.770  0.3602E+00  0.4404E+02
   0.780  0.3822E+00  0.4405E+02
   0.790  0.4046E+00  0.4405E+02
   0.800  0.4271E+00  0.4406E+02
   0.810  0.4497E+00  0.4406E+02
   0.820  0.4722E+00  0.4406E+02
   0.830  0.4946E+00  0.4407E+02
   0.840  0.5167E+00  0.4408E+02
   0.850  0.5384E+00  0.4408E+02
   0.860  0.5595E+00  0.4409E+02
   0.870  0.5800E+00  0.4409E+02
   0.880  0.5997E+00  0.4410E+02
   0.890  0.6185E+00  0.4410E+02
   0.900  0.6363E+00  0.4411E+02
   0.910  0.6530E+00  0.4412E+02
   0.920  0.6684E+00  0.4412E+02
   0.930  0.6826E+00  0.4413E+02
   0.940  0.6953E+00  0.4414E+02
   0.950  0.7066E+00  0.4414E+02
   0.960  0.7164E+00  0.4415E+02
   0.970  0.7246E+00  0.4416E+02
   0.980  0.7312E+00  0.4417E+02
   0.990  0.7362E+00  0.4417E+02
   1.000  0.7396E+00  0.4418E+02
   1.010  0.7414E+00  0.4419E+02
   1.020  0.7416E+00  0.4420E+02
   1.030  0.7402E+00  0.4420E+02
   1.040  0.7374E+00  0.4421E+02
   1.050  0.7331E+00  0.4422E+02
   1.060  0.7275E+00  0.4423E+02
   1.070  0.7207E+00  0.4423E+02
   1.080  0.7126E+00  0.4424E+02
   1.090  0.7034E+00  0.4425E+02
   1.100  0.6933E+00  0.4425E+02
   1.110  0.6823E+00  0.4426E+02
   1.120  0.6706E+00  0.4427E+02
   1.130  0.6582E+00  0.4427E+02
   1.140  0.6453E+00  0.4428E+02
   1.150  0.6320E+00  0.4429E+02
   1.160  0.6184E+00  0.4429E+02
   1.170  0.6045E+00  0.4430E+02
   1.180  0.5906E+00  0.4430E+02
   1.190  0.5767E+00  0.4431E+02
   1.200  0.5629E+00  0.4432E+02
   1.210  0.5493E+00  0.4432E+02
   1.220  0.5360E+00  0.4433E+02
   1.230  0.5230E+00  0.4433E+02
   1.240  0.5104E+00  0.4434E+02
   1.250  0.4982E+00  0.4434E+02
   1.260  0.4865E+00  0.4435E+02
   1.270  0.4753E+00  0.4435E+02
   1.280  0.4647E+00  0.4436E+02
   1.290  0.4547E+00  0.4436E+02
   1.300  0.4452E+00  0.4437E+02
   1.310  0.4363E+00  0.4437E+02
   1.320  0.4280E+00  0.4437E+02
   1.330  0.4203E+00  0.4438E+02
   1.340  0.4132E+00  0.4438E+02
   1.350  0.4066E+00  0.4439E+02
   1.360  0.4006E+00  0.4439E+02
   1.370  0.3951E+00  0.4439E+02
   1.380  0.3900E+00  0.4440E+02
   1.390  0.3855E+00  0.4440E+02
   1.400  0.3813E+00  0.4441E+02
   1.410  0.3776E+00  0.4441E+02
   1.420  0.3742E+00  0.4441E+02
   1.430  0.3712E+00  0.4442E+02
   1.440  0.3685E+00  0.4442E+02
   1.450  0.3660E+00  0.4442E+02
   1.460  0.3639E+00  0.4443E+02
   1.470  0.3619E+00  0.4443E+02
   1.480  0.3602E+00  0.4444E+02
   1.490  0.3586E+00  0.4444E+02
   1.500  0.3572E+00  0.4444E+02
   1.510  0.3559E+00  0.4445E+02
   1.520  0.3548E+00  0.4445E+02
   1.530  0.3537E+00  0.4445E+02
   1.540  0.3528E+00  0.4446E+02
   1.550  0.3519E+00  0.4446E+02
   1.560  0.3511E+00  0.4446E+02
   1.570  0.3503E+00  0.4447E+02
   1.580  0.3495E+00  0.4447E+02
   1.590  0.3488E+00  0.4447E+02
   1.600  0.3482E+00  0.4448E+02
   1.610  0.3475E+00  0.4448E+02
   1.620  0.3469E+00  0.4448E+02
   1.630  0.3462E+00  0.4449E+02
   1.640  0.3456E+00  0.4449E+02
   1.650  0.3450E+00  0.4449E+02
   1.660  0.3444E+00  0.4450E+02
   1.670  0.3438E+00  0.4450E+02
   1.680  0.3431E+00  0.4451E+02
   1.690  0.3425E+00  0.4451E+02
   1.700  0.3419E+00  0.4451E+02
   1.710  0.3413E+00  0.4452E+02
   1.720  0.3407E+00  0.4452E+02
   1.730  0.3401E+00  0.4452E+02
   1.740  0.3395E+00  0.4453E+02
   1.750  0.3389E+00  0.4453E+02
   1.760  0.3383E+00  0.4453E+02
   1.770  0.3377E+00  0.4454E+02
   1.780  0.3371E+00  0.4454E+02
   1.790  0.3365E+00  0.4454E+02
   1.800  0.3359E+00  0.4455E+02
   1.810  0.3353E+00  0.4455E+02
   1.820  0.3348E+00  0.4455E+02
   1.830  0.3342E+00  0.4456E+02
   1.840  0.3336E+00  0.4456E+02
   1.850  0.3331E+00  0.4456E+02
   1.860  0.3325E+00  0.4457E+02
   1.870  0.3320E+00  0.4457E+02
   1.880  0.3314E+00  0.4457E+02
   1.890  0.3309E+00  0.4458E+02
   1.900  0.3304E+00  0.4458E+02
   1.910  0.3299E+00  0.4458E+02
   1.920  0.3294E+00  0.4459E+02
   1.930  0.3289E+00  0.4459E+02
   1.940  0.3284E+00  0.4459E+02
   1.950  0.3279E+00  0.4460E+02
   1.960  0.3275E+00  0.4460E+02
   1.970  0.3270E+00  0.4460E+02
   1.980  0.3266E+00  0.4461E+02
   1.990  0.3261E+00  0.4461E+02
   2.000  0.3257E+00  0.4461E+02
   2.010  0.3253E+00  0.4462E+02
   2.020  0.3249E+00  0.4462E+02
   2.030  0.3245E+00  0.4462E+02
   2.040  0.3241E+00  0.4462E+02
   2.050  0.3237E+00  0.4463E+02
   2.060  0.3234E+00  0.4463E+02
   2.070  0.3230E+00  0.4463E+02
   2.080  0.3227E+00  0.4464E+02
   2.090  0.3224E+00  0.4464E+02
   2.100  0.3220E+00  0.4464E+02
   2.110  0.3218E+00  0.4465E+02
   2.120  0.3215E+00  0.4465E+02
   2.130  0.3212E+00  0.4465E+02
   2.140  0.3210E+00  0.4466E+02
   2.150  0.3208E+00  0.4466E+02
   2.160  0.3206E+00  0.4466E+02
   2.170  0.3204E+00  0.4467E+02
   2.180  0.3202E+00  0.4467E+02
   2.190  0.3201E+00  0.4467E+02
   2.200  0.3201E+00  0.4468E+02
   2.210  0.3200E+00  0.4468E+02
   2.220  0.3200E+00  0.4468E+02
   2.230  0.3201E+00  0.4469E+02
   2.240  0.3202E+00  0.4469E+02
   2.250  0.3204E+00  0.4469E+02
   2.260  0.3207E+00  0.4470E+02
   2.270  0.3211E+00  0.4470E+02
   2.280  0.3215E+00  0.4470E+02
   2.290  0.3221E+00  0.4471E+02
   2.300  0.3228E+00  0.4471E+02
   2.310  0.3236E+00  0.4471E+02
   2.320  0.3246E+00  0.4471E+02
   2.330  0.3257E+00  0.4472E+02
   2.340  0.3271E+00  0.4472E+02
   2.350  0.3287E+00  0.4472E+02
   2.360  0.3305E+00  0.4473E+02
   2.370  0.3326E+00  0.4473E+02
   2.380  0.3350E+00  0.4473E+02
   2.390  0.3377E+00  0.4474E+02
   2.400  0.3408E+00  0.4474E+02
   2.410  0.3443E+00  0.4474E+02
   2.420  0.3483E+00  0.4475E+02
   2.430  0.3527E+00  0.4475E+02
   2.440  0.3576E+00  0.4476E+02
   2.450  0.3631E+00  0.4476E+02
   2.460  0.3691E+00  0.4476E+02
   2.470  0.3758E+00  0.4477E+02
   2.480  0.3832E+00  0.4477E+02
   2.490  0.3913E+00  0.4477E+02
   2.500  0.4002E+00  0.4478E+02
   2.510  0.4099E+00  0.4478E+02
   2.520  0.4204E+00  0.4479E+02
   2.530  0.4318E+00  0.4479E+02
   2.540  0.4441E+00  0.4480E+02
   2.550  0.4573E+00  0.4480E+02
   2.560  0.4715E+00  0.4480E+02
   2.570  0.4867E+00  0.4481E+02
   2.580  0.5028E+00  0.4481E+02
   2.590  0.5200E+00  0.4482E+02
   2.600  0.5382E+00  0.4483E+02
   2.610  0.5574E+00  0.4483E+02
   2.620  0.5775E+00  0.4484E+02
   2.630  0.5986E+00  0.4484E+02
   2.640  0.6207E+00  0.4485E+02
   2.650  0.6436E+00  0.4486E+02
   2.660  0.6674E+00  0.4486E+02
   2.670  0.6919E+00  0.4487E+02
   2.680  0.7172E+00  0.4488E+02
   2.690  0.7431E+00  0.4488E+02
   2.700  0.7696E+00  0.4489E+02
   2.710  0.7965E+00  0.4490E+02
   2.720  0.8238E+00  0.4491E+02
   2.730  0.8514E+00  0.4492E+02
   2.740  0.8791E+00  0.4492E+02
   2.750  0.9069E+00  0.4493E+02
   2.760  0.9347E+00  0.4494E+02
   2.770  0.9622E+00  0.4495E+02
   2.780  0.9895E+00  0.4496E+02
   2.790  0.1016E+01  0.4497E+02
   2.800  0.1043E+01  0.4498E+02
   2.810  0.1069E+01  0.4499E+02
   2.820  0.1094E+01  0.4500E+02
   2.830  0.1118E+01  0.4502E+02
   2.840  0.1142E+01  0.4503E+02
   2.850  0.1164E+01  0.4504E+02
   2.860  0.1186E+01  0.4505E+02
   2.870  0.1207E+01  0.4506E+02
   2.880  0.1226E+01  0.4508E+02
   2.890  0.1245E+01  0.4509E+02
   2.900  0.1263E+01  0.4510E+02
   2.910  0.1279E+01  0.4511E+02
   2.920  0.1295E+01  0.4513E+02
   2.930  0.1310E+01  0.4514E+02
   2.940  0.1324E+01  0.4515E+02
   2.950  0.1337E+01  0.4517E+02
   2.960  0.1350E+01  0.4518E+02
   2.970  0.1362E+01  0.4519E+02
   2.980  0.1374E+01  0.4521E+02
   2.990  0.1386E+01  0.4522E+02
   3.000  0.1397E+01  0.4523E+02
   3.010  0.1409E+01  0.4525E+02
   3.020  0.1421E+01  0.4526E+02
   3.030  0.1434E+01  0.4528E+02
   3.040  0.1447E+01  0.4529E+02
   3.050  0.1461E+01  0.4531E+02
   3.060  0.1476E+01  0.4532E+02
   3.070  0.1491E+01  0.4534E+02
   3.080  0.1509E+01  0.4535E+02
   3.090  0.1527E+01  0.4537E+02
   3.100  0.1547E+01  0.4538E+02
   3.110  0.1569E+01  0.4540E+02
   3.120  0.1593E+01  0.4541E+02
   3.130  0.1618E+01  0.4543E+02
   3.140  0.1645E+01  0.4545E+02
   3.150  0.1674E+01  0.4546E+02
   3.160  0.1705E+01  0.4548E+02
   3.170  0.1737E+01  0.4550E+02
   3.180  0.1772E+01  0.4551E+02
   3.190  0.1808E+01  0.4553E+02
   3.200  0.1846E+01  0.4555E+02
   3.210  0.1885E+01  0.4557E+02
   3.220  0.1926E+01  0.4559E+02
   3.230  0.1968E+01  0.4561E+02
   3.240  0.2011E+01  0.4563E+02
   3.250  0.2054E+01  0.4565E+02
   3.260  0.2098E+01  0.4567E+02
   3.270  0.2142E+01  0.4569E+02
   3.280  0.2186E+01  0.4571E+02
   3.290  0.2229E+01  0.4574E+02
   3.300  0.2272E+01  0.4576E+02
   3.310  0.2314E+01  0.4578E+02
   3.320  0.2355E+01  0.4581E+02
   3.330  0.2393E+01  0.4583E+02
   3.340  0.2430E+01  0.4585E+02
   3.350  0.2465E+01  0.4588E+02
   3.360  0.2497E+01  0.4590E+02
   3.370  0.2527E+01  0.4593E+02
   3.380  0.2554E+01  0.4595E+02
   3.390  0.2577E+01  0.4598E+02
   3.400  0.2598E+01  0.4601E+02
   3.410  0.2615E+01  0.4603E+02
   3.420  0.2628E+01  0.4606E+02
   3.430  0.2638E+01  0.4608E+02
   3.440  0.2645E+01  0.4611E+02
   3.450  0.2648E+01  0.4614E+02
   3.460  0.2648E+01  0.4616E+02
   3.470  0.2645E+01  0.4619E+02
   3.480  0.2638E+01  0.4622E+02
   3.490  0.2630E+01  0.4624E+02
   3.500  0.2618E+01  0.4627E+02
   3.510  0.2605E+01  0.4630E+02
   3.520  0.2590E+01  0.4632E+02
   3.530  0.2573E+01  0.4635E+02
   3.540  0.2556E+01  0.4637E+02
   3.550  0.2538E+01  0.4640E+02
   3.560  0.2520E+01  0.4642E+02
   3.570  0.2503E+01  0.4645E+02
   3.580  0.2487E+01  0.4647E+02
   3.590  0.2471E+01  0.4650E+02
   3.600  0.2458E+01  0.4652E+02
   3.610  0.2447E+01  0.4655E+02
   3.620  0.2439E+01  0.4657E+02
   3.630  0.2434E+01  0.4660E+02
   3.640  0.2433E+01  0.4662E+02
   3.650  0.2435E+01  0.4664E+02
   3.660  0.2442E+01  0.4667E+02
   3.670  0.2453E+01  0.4669E+02
   3.680  0.2468E+01  0.4672E+02
   3.690  0.2488E+01  0.4674E+02
   3.700  0.2513E+01  0.4677E+02
   3.710  0.2543E+01  0.4679E+02
   3.720  0.2577E+01  0.4682E+02
   3.730  0.2616E+01  0.4685E+02
   3.740  0.2659E+01  0.4687E+02
   3.750  0.2707E+01  0.4690E+02
   3.760  0.2758E+01  0.4693E+02
   3.770  0.2814E+01  0.4695E+02
   3.780  0.2872E+01  0.4698E+02
   3.790  0.2933E+01  0.4701E+02
   3.800  0.2997E+01  0.4704E+02
   3.810  0.3062E+01  0.4707E+02
   3.820  0.3129E+01  0.4710E+02
   3.830  0.3196E+01  0.4714E+02
   3.840  0.3264E+01  0.4717E+02
   3.850  0.3332E+01  0.4720E+02
   3.860  0.3399E+01  0.4724E+02
   3.870  0.3465E+01  0.4727E+02
   3.880  0.3529E+01  0.4731E+02
   3.890  0.3590E+01  0.4734E+02
   3.900  0.3649E+01  0.4738E+02
   3.910  0.3704E+01  0.4742E+02
   3.920  0.3756E+01  0.4745E+02
   3.930  0.3804E+01  0.4749E+02
   3.940  0.3848E+01  0.4753E+02
   3.950  0.3887E+01  0.4757E+02
   3.960  0.3921E+01  0.4761E+02
   3.970  0.3950E+01  0.4765E+02
   3.980  0.3974E+01  0.4769E+02
   3.990  0.3992E+01  0.4773E+02
   4.000  0.4005E+01  0.4777E+02
   4.010  0.4013E+01  0.4781E+02
   4.020  0.4015E+01  0.4785E+02
   4.030  0.4012E+01  0.4789E+02
   4.040  0.4004E+01  0.4793E+02
   4.050  0.3990E+01  0.4797E+02
   4.060  0.3972E+01  0.4801E+02
   4.070  0.3949E+01  0.4805E+02
   4.080  0.3921E+01  0.4809E+02
   4.090  0.3888E+01  0.4813E+02
   4.100  0.3852E+01  0.4816E+02
   4.110  0.3811E+01  0.4820E+02
   4.120  0.3767E+01  0.4824E+02
   4.130  0.3719E+01  0.4828E+02
   4.140  0.3667E+01  0.4831E+02
   4.150  0.3612E+01  0.4835E+02
   4.160  0.3555E+01  0.4838E+02
   4.170  0.3495E+01  0.4842E+02
   4.180  0.3432E+01  0.4845E+02
   4.190  0.3367E+01  0.4849E+02
   4.200  0.3299E+01  0.4852E+02
   4.210  0.3230E+01  0.4855E+02
   4.220  0.3159E+01  0.4858E+02
   4.230  0.3087E+01  0.4862E+02
   4.240  0.3013E+01  0.4865E+02
   4.250  0.2938E+01  0.4868E+02
   4.260  0.2862E+01  0.4870E+02
   4.270  0.2786E+01  0.4873E+02
   4.280  0.2708E+01  0.4876E+02
   4.290  0.2631E+01  0.4879E+02
   4.300  0.2553E+01  0.4881E+02
   4.310  0.2476E+01  0.4884E+02
   4.320  0.2398E+01  0.4886E+02
   4.330  0.2321E+01  0.4888E+02
   4.340  0.2245E+01  0.4890E+02
   4.350  0.2170E+01  0.4893E+02
   4.360  0.2095E+01  0.4895E+02
   4.370  0.2022E+01  0.4897E+02
   4.380  0.1951E+01  0.4899E+02
   4.390  0.1881E+01  0.4901E+02
   4.400  0.1814E+01  0.4902E+02
   4.410  0.1748E+01  0.4904E+02
   4.420  0.1684E+01  0.4906E+02
   4.430  0.1623E+01  0.4907E+02
   4.440  0.1565E+01  0.4909E+02
   4.450  0.1509E+01  0.4911E+02
   4.460  0.1456E+01  0.4912E+02
   4.470  0.1406E+01  0.4913E+02
   4.480  0.1358E+01  0.4915E+02
   4.490  0.1314E+01  0.4916E+02
   4.500  0.1272E+01  0.4917E+02
   4.510  0.1234E+01  0.4919E+02
   4.520  0.1198E+01  0.4920E+02
   4.530  0.1166E+01  0.4921E+02
   4.540  0.1136E+01  0.4922E+02
   4.550  0.1109E+01  0.4923E+02
   4.560  0.1085E+01  0.4924E+02
   4.570  0.1063E+01  0.4925E+02
   4.580  0.1044E+01  0.4926E+02
   4.590  0.1027E+01  0.4927E+02
   4.600  0.1012E+01  0.4928E+02
   4.610  0.1000E+01  0.4929E+02
   4.620  0.9898E+00  0.4930E+02
   4.630  0.9814E+00  0.4931E+02
   4.640  0.9749E+00  0.4932E+02
   4.650  0.9700E+00  0.4933E+02
   4.660  0.9668E+00  0.4934E+02
   4.670  0.9651E+00  0.4935E+02
   4.680  0.9649E+00  0.4936E+02
   4.690  0.9660E+00  0.4937E+02
   4.700  0.9686E+00  0.4938E+02
   4.710  0.9725E+00  0.4939E+02
   4.720  0.9777E+00  0.4940E+02
   4.730  0.9843E+00  0.4941E+02
   4.740  0.9923E+00  0.4942E+02
   4.750  0.1002E+01  0.4943E+02
   4.760  0.1013E+01  0.4944E+02
   4.770  0.1025E+01  0.4945E+02
   4.780  0.1039E+01  0.4946E+02
   4.790  0.1055E+01  0.4947E+02
   4.800  0.1073E+01  0.4948E+02
   4.810  0.1093E+01  0.4949E+02
   4.820  0.1115E+01  0.4951E+02
   4.830  0.1139E+01  0.4952E+02
   4.840  0.1166E+01  0.4953E+02
   4.850  0.1195E+01  0.4954E+02
   4.860  0.1227E+01  0.4955E+02
   4.870  0.1262E+01  0.4957E+02
   4.880  0.1300E+01  0.4958E+02
   4.890  0.1342E+01  0.4959E+02
   4.900  0.1386E+01  0.4961E+02
   4.910  0.1433E+01  0.4962E+02
   4.920  0.1484E+01  0.4963E+02
   4.930  0.1538E+01  0.4965E+02
   4.940  0.1596E+01  0.4967E+02
   4.950  0.1656E+01  0.4968E+02
   4.960  0.1720E+01  0.4970E+02
   4.970  0.1787E+01  0.4972E+02
   4.980  0.1856E+01  0.4974E+02
   4.990  0.1929E+01  0.4976E+02
   5.000  0.2003E+01  0.4978E+02
   5.010  0.2080E+01  0.4980E+02
   5.020  0.2159E+01  0.4982E+02
   5.030  0.2239E+01  0.4984E+02
   5.040  0.2320E+01  0.4986E+02
   5.050  0.2401E+01  0.4989E+02
   5.060  0.2483E+01  0.4991E+02
   5.070  0.2564E+01  0.4994E+02
   5.080  0.2644E+01  0.4996E+02
   5.090  0.2723E+01  0.4999E+02
   5.100  0.2800E+01  0.5002E+02
   5.110  0.2874E+01  0.5005E+02
   5.120  0.2945E+01  0.5008E+02
   5.130  0.3012E+01  0.5011E+02
   5.140  0.3076E+01  0.5014E+02
   5.150  0.3134E+01  0.5017E+02
   5.160  0.3187E+01  0.5020E+02
   5.170  0.3234E+01  0.5023E+02
   5.180  0.3276E+01  0.5027E+02
   5.190  0.3310E+01  0.5030E+02
   5.200  0.3338E+01  0.5033E+02
   5.210  0.3359E+01  0.5037E+02
   5.220  0.3372E+01  0.5040E+02
   5.230  0.3378E+01  0.5043E+02
   5.240  0.3376E+01  0.5047E+02
   5.250  0.3367E+01  0.5050E+02
   5.260  0.3350E+01  0.5054E+02
   5.270  0.3326E+01  0.5057E+02
   5.280  0.3294E+01  0.5060E+02
   5.290  0.3255E+01  0.5063E+02
   5.300  0.3209E+01  0.5067E+02
   5.310  0.3157E+01  0.5070E+02
   5.320  0.3099E+01  0.5073E+02
   5.330  0.3036E+01  0.5076E+02
   5.340  0.2967E+01  0.5079E+02
   5.350  0.2894E+01  0.5082E+02
   5.360  0.2817E+01  0.5085E+02
   5.370  0.2736E+01  0.5087E+02
   5.380  0.2653E+01  0.5090E+02
   5.390  0.2568E+01  0.5093E+02
   5.400  0.2481E+01  0.5095E+02
   5.410  0.2393E+01  0.5097E+02
   5.420  0.2305E+01  0.5100E+02
   5.430  0.2217E+01  0.5102E+02
   5.440  0.2131E+01  0.5104E+02
   5.450  0.2045E+01  0.5106E+02
   5.460  0.1962E+01  0.5108E+02
   5.470  0.1880E+01  0.5110E+02
   5.480  0.1802E+01  0.5112E+02
   5.490  0.1727E+01  0.5114E+02
   5.500  0.1655E+01  0.5115E+02
   5.510  0.1588E+01  0.5117E+02
   5.520  0.1524E+01  0.5118E+02
   5.530  0.1465E+01  0.5120E+02
   5.540  0.1410E+01  0.5121E+02
   5.550  0.1359E+01  0.5123E+02
   5.560  0.1314E+01  0.5124E+02
   5.570  0.1272E+01  0.5125E+02
   5.580  0.1236E+01  0.5126E+02
   5.590  0.1203E+01  0.5128E+02
   5.600  0.1175E+01  0.5129E+02
   5.610  0.1151E+01  0.5130E+02
   5.620  0.1131E+01  0.5131E+02
   5.630  0.1115E+01  0.5132E+02
   5.640  0.1102E+01  0.5133E+02
   5.650  0.1093E+01  0.5134E+02
   5.660  0.1087E+01  0.5135E+02
   5.670  0.1083E+01  0.5136E+02
   5.680  0.1081E+01  0.5138E+02
   5.690  0.1082E+01  0.5139E+02
   5.700  0.1084E+01  0.5140E+02
   5.710  0.1088E+01  0.5141E+02
   5.720  0.1093E+01  0.5142E+02
   5.730  0.1099E+01  0.5143E+02
   5.740  0.1105E+01  0.5144E+02
   5.750  0.1111E+01  0.5145E+02
   5.760  0.1117E+01  0.5146E+02
   5.770  0.1123E+01  0.5147E+02
   5.780  0.1128E+01  0.5149E+02
   5.790  0.1133E+01  0.5150E+02
   5.800  0.1136E+01  0.5151E+02
   5.810  0.1138E+01  0.5152E+02
   5.820  0.1139E+01  0.5153E+02
   5.830  0.1138E+01  0.5154E+02
   5.840  0.1135E+01  0.5155E+02
   5.850  0.1130E+01  0.5157E+02
   5.860  0.1124E+01  0.5158E+02
   5.870  0.1115E+01  0.5159E+02
   5.880  0.1104E+01  0.5160E+02
   5.890  0.1091E+01  0.5161E+02
   5.900  0.1076E+01  0.5162E+02
   5.910  0.1059E+01  0.5163E+02
   5.920  0.1039E+01  0.5164E+02
   5.930  0.1018E+01  0.5165E+02
   5.940  0.9948E+00  0.5166E+02
   5.950  0.9696E+00  0.5167E+02
   5.960  0.9427E+00  0.5168E+02
   5.970  0.9141E+00  0.5169E+02
   5.980  0.8841E+00  0.5170E+02
   5.990  0.8528E+00  0.5171E+02
   6.000  0.8203E+00  0.5172E+02
   6.010  0.7869E+00  0.5172E+02
   6.020  0.7526E+00  0.5173E+02
   6.030  0.7178E+00  0.5174E+02
   6.040  0.6826E+00  0.5174E+02
   6.050  0.6472E+00  0.5175E+02
   6.060  0.6118E+00  0.5176E+02
   6.070  0.5766E+00  0.5176E+02
   6.080  0.5418E+00  0.5177E+02
   6.090  0.5076E+00  0.5177E+02
   6.100  0.4741E+00  0.5178E+02
   6.110  0.4415E+00  0.5178E+02
   6.120  0.4100E+00  0.5179E+02
   6.130  0.3797E+00  0.5179E+02
   6.140  0.3507E+00  0.5179E+02
   6.150  0.3232E+00  0.5180E+02
   6.160  0.2972E+00  0.5180E+02
   6.170  0.2727E+00  0.5180E+02
   6.180  0.2500E+00  0.5181E+02
   6.190  0.2289E+00  0.5181E+02
   6.200  0.2096E+00  0.5181E+02
   6.210  0.1921E+00  0.5181E+02
   6.220  0.1762E+00  0.5181E+02
   6.230  0.1621E+00  0.5182E+02
   6.240  0.1497E+00  0.5182E+02
   6.250  0.1390E+00  0.5182E+02
   6.260  0.1298E+00  0.5182E+02
   6.270  0.1221E+00  0.5182E+02
   6.280  0.1159E+00  0.5182E+02
   6.290  0.1110E+00  0.5182E+02
   6.300  0.1074E+00  0.5182E+02
   6.310  0.1050E+00  0.5183E+02
   6.320  0.1036E+00  0.5183E+02
   6.330  0.1032E+00  0.5183E+02
   6.340  0.1037E+00  0.5183E+02
   6.350  0.1050E+00  0.5183E+02
   6.360  0.1070E+00  0.5183E+02
   6.370  0.1096E+00  0.5183E+02
   6.380  0.1126E+00  0.5183E+02
   6.390  0.1161E+00  0.5183E+02
   6.400  0.1199E+00  0.5183E+02
   6.410  0.1240E+00  0.5184E+02
   6.420  0.1283E+00  0.5184E+02
   6.430  0.1328E+00  0.5184E+02
   6.440  0.1373E+00  0.5184E+02
   6.450  0.1419E+00  0.5184E+02
   6.460  0.1464E+00  0.5184E+02
   6.470  0.1510E+00  0.5184E+02
   6.480  0.1554E+00  0.5185E+02
   6.490  0.1598E+00  0.5185E+02
   6.500  0.1641E+00  0.5185E+02
   6.510  0.1682E+00  0.5185E+02
   6.520  0.1722E+00  0.5185E+02
   6.530  0.1761E+00  0.5185E+02
   6.540  0.1799E+00  0.5186E+02
   6.550  0.1836E+00  0.5186E+02
   6.560  0.1871E+00  0.5186E+02
   6.570  0.1906E+00  0.5186E+02
   6.580  0.1940E+00  0.5186E+02
   6.590  0.1972E+00  0.5187E+02
   6.600  0.2005E+00  0.5187E+02
   6.610  0.2037E+00  0.5187E+02
   6.620  0.2068E+00  0.5187E+02
   6.630  0.2099E+00  0.5187E+02
   6.640  0.2131E+00  0.5188E+02
   6.650  0.2162E+00  0.5188E+02
   6.660  0.2194E+00  0.5188E+02
   6.670  0.2226E+00  0.5188E+02
   6.680  0.2259E+00  0.5188E+02
   6.690  0.2292E+00  0.5189E+02
   6.700  0.2325E+00  0.5189E+02
   6.710  0.2360E+00  0.5189E+02
   6.720  0.2394E+00  0.5189E+02
   6.730  0.2429E+00  0.5190E+02
   6.740  0.2464E+00  0.5190E+02
   6.750  0.2500E+00  0.5190E+02
   6.760  0.2536E+00  0.5190E+02
   6.770  0.2571E+00  0.5191E+02
   6.780  0.2607E+00  0.5191E+02
   6.790  0.2641E+00  0.5191E+02
   6.800  0.2675E+00  0.5191E+02
   6.810  0.2708E+00  0.5192E+02
   6.820  0.2739E+00  0.5192E+02
   6.830  0.2769E+00  0.5192E+02
   6.840  0.2796E+00  0.5193E+02
   6.850  0.2820E+00  0.5193E+02
   6.860  0.2842E+00  0.5193E+02
   6.870  0.2861E+00  0.5193E+02
   6.880  0.2875E+00  0.5194E+02
   6.890  0.2886E+00  0.5194E+02
   6.900  0.2892E+00  0.5194E+02
   6.910  0.2893E+00  0.5195E+02
   6.920  0.2889E+00  0.5195E+02
   6.930  0.2880E+00  0.5195E+02
   6.940  0.2865E+00  0.5195E+02
   6.950  0.2844E+00  0.5196E+02
   6.960  0.2817E+00  0.5196E+02
   6.970  0.2783E+00  0.5196E+02
   6.980  0.2743E+00  0.5197E+02
   6.990  0.2697E+00  0.5197E+02
   7.000  0.2644E+00  0.5197E+02
   7.010  0.2585E+00  0.5197E+02
   7.020  0.2520E+00  0.5198E+02
   7.030  0.2449E+00  0.5198E+02
   7.040  0.2372E+00  0.5198E+02
   7.050  0.2290E+00  0.5198E+02
   7.060  0.2203E+00  0.5199E+02
   7.070  0.2111E+00  0.5199E+02
   7.080  0.2014E+00  0.5199E+02
   7.090  0.1915E+00  0.5199E+02
   7.100  0.1812E+00  0.5199E+02
   7.110  0.1706E+00  0.5199E+02
   7.120  0.1599E+00  0.5200E+02
   7.130  0.1490E+00  0.5200E+02
   7.140  0.1380E+00  0.5200E+02
   7.150  0.1270E+00  0.5200E+02
   7.160  0.1161E+00  0.5200E+02
   7.170  0.1053E+00  0.5200E+02
   7.180  0.9464E-01  0.5200E+02
   7.190  0.8421E-01  0.5200E+02
   7.200  0.7405E-01  0.5201E+02
   7.210  0.6421E-01  0.5201E+02
   7.220  0.5474E-01  0.5201E+02
   7.230  0.4568E-01  0.5201E+02
   7.240  0.3706E-01  0.5201E+02
   7.250  0.2891E-01  0.5201E+02
   7.260  0.2126E-01  0.5201E+02
   7.270  0.1412E-01  0.5201E+02
   7.280  0.7524E-02  0.5201E+02
   7.290  0.1465E-02  0.5201E+02
   7.300 -0.4050E-02  0.5201E+02
   7.310 -0.9020E-02  0.5201E+02
   7.320 -0.1345E-01  0.5201E+02
   7.330 -0.1736E-01  0.5201E+02
   7.340 -0.2075E-01  0.5201E+02
   7.350 -0.2364E-01  0.5201E+02
   7.360 -0.2606E-01  0.5201E+02
   7.370 -0.2803E-01  0.5201E+02
   7.380 -0.2957E-01  0.5201E+02
   7.390 -0.3072E-01  0.5201E+02
   7.400 -0.3150E-01  0.5201E+02
   7.410 -0.3194E-01  0.5201E+02
   7.420 -0.3207E-01  0.5201E+02
   7.430 -0.3193E-01  0.5200E+02
   7.440 -0.3155E-01  0.5200E+02
   7.450 -0.3095E-01  0.5200E+02
   7.460 -0.3017E-01  0.5200E+02
   7.470 -0.2923E-01  0.5200E+02
   7.480 -0.2816E-01  0.5200E+02
   7.490 -0.2698E-01  0.5200E+02
   7.500 -0.2573E-01  0.5200E+02
   7.510 -0.2441E-01  0.5200E+02
   7.520 -0.2306E-01  0.5200E+02
   7.530 -0.2169E-01  0.5200E+02
   7.540 -0.2031E-01  0.5200E+02
   7.550 -0.1894E-01  0.5200E+02
   7.560 -0.1759E-01  0.5200E+02
   7.570 -0.1628E-01  0.5200E+02
   7.580 -0.1501E-01  0.5200E+02
   7.590 -0.1378E-01  0.5200E+02
   7.600 -0.1261E-01  0.5200E+02
   7.610 -0.1150E-01  0.5200E+02
   7.620 -0.1045E-01  0.5200E+02
   7.630 -0.9460E-02  0.5200E+02
   7.640 -0.8537E-02  0.5200E+02
   7.650 -0.7679E-02  0.5200E+02
   7.660 -0.6884E-02  0.5200E+02
   7.670 -0.6151E-02  0.5200E+02
   7.680 -0.5479E-02  0.5200E+02
   7.690 -0.4864E-02  0.5200E+02
   7.700 -0.4305E-02  0.5200E+02
   7.710 -0.3798E-02  0.5200E+02
   7.720 -0.3341E-02  0.5200E+02
   7.730 -0.2930E-02  0.5200E+02
   7.740 -0.2561E-02  0.5200E+02
   7.750 -0.2232E-02  0.5200E+02
   7.760 -0.1939E-02  0.5200E+02
   7.770 -0.1680E-02  0.5200E+02
   7.780 -0.1451E-02  0.5200E+02
   7.790 -0.1250E-02  0.5200E+02
   7.800 -0.1073E-02  0.5200E+02
   7.810 -0.9184E-03  0.5200E+02
   7.820 -0.7840E-03  0.5200E+02
